%OpenBCI Raw EEG Data
%Number of channels = 4
%Sample Rate = 200.0 Hz
%First Column = SampleIndex
%Last Column = Timestamp 
%Other Columns = EEG data in microvolts followed by Accel Data (in G) interleaved with Aux Data
0, -72.61, -36.34, -45.77, 0.00, 0.000, 0.000, 0.000, 16:30:03.898, 1680381003898
1, -507.75, -275.81, -279.20, 0.00, 0.000, 0.000, 0.000, 16:30:03.898, 1680381003898
2, 239.88, 252.47, 198.57, 0.00, 0.000, 0.000, 0.000, 16:30:03.898, 1680381003898
3, 285.46, 208.39, 178.48, 0.00, 0.000, 0.000, 0.000, 16:30:03.927, 1680381003927
4, -518.44, -292.60, -294.78, 0.00, 0.000, 0.000, 0.000, 16:30:03.927, 1680381003927
5, -114.78, 27.63, -30.31, 0.00, 0.000, 0.000, 0.000, 16:30:03.928, 1680381003928
6, 547.24, 414.30, 355.44, 0.00, 0.000, 0.000, 0.000, 16:30:03.928, 1680381003928
7, -376.12, -226.91, -230.63, 0.00, 0.000, 0.000, 0.000, 16:30:03.929, 1680381003929
8, -384.72, -173.83, -214.49, 0.00, 0.000, 0.000, 0.000, 16:30:03.929, 1680381003929
9, 519.60, 427.19, 354.31, 0.00, 0.000, 0.000, 0.000, 16:30:03.930, 1680381003930
10, -81.93, -40.11, -61.01, 0.00, 0.000, 0.000, 0.000, 16:30:03.930, 1680381003930
11, -506.59, -271.28, -287.89, 0.00, 0.000, 0.000, 0.000, 16:30:03.958, 1680381003958
12, 242.15, 263.52, 184.38, 0.00, 0.000, 0.000, 0.000, 16:30:03.958, 1680381003958
13, 284.81, 203.94, 164.11, 0.00, 0.000, 0.000, 0.000, 16:30:03.959, 1680381003959
14, -513.26, -294.18, -299.78, 0.00, 0.000, 0.000, 0.000, 16:30:03.959, 1680381003959
15, -107.23, 26.18, -34.31, 0.00, 0.000, 0.000, 0.000, 16:30:03.988, 1680381003988
16, 535.17, 403.23, 341.55, 0.00, 0.000, 0.000, 0.000, 16:30:03.988, 1680381003988
17, -376.54, -229.14, -230.29, 0.00, 0.000, 0.000, 0.000, 16:30:03.990, 1680381003990
18, -377.36, -163.18, -201.44, 0.00, 0.000, 0.000, 0.000, 16:30:03.990, 1680381003990
19, 529.02, 430.95, 365.10, 0.00, 0.000, 0.000, 0.000, 16:30:03.990, 1680381003990
20, -82.05, -47.81, -56.26, 0.00, 0.000, 0.000, 0.000, 16:30:03.990, 1680381003990
21, -513.52, -269.11, -276.89, 0.00, 0.000, 0.000, 0.000, 16:30:03.997, 1680381003997
22, 274.21, 293.60, 216.99, 0.00, 0.000, 0.000, 0.000, 16:30:03.997, 1680381003997
23, 315.99, 223.85, 204.52, 0.00, 0.000, 0.000, 0.000, 16:30:04.017, 1680381004017
24, -528.27, -308.56, -287.49, 0.00, 0.000, 0.000, 0.000, 16:30:04.017, 1680381004017
25, -98.99, 40.04, -17.90, 0.00, 0.000, 0.000, 0.000, 16:30:04.018, 1680381004018
26, 601.79, 444.74, 397.11, 0.00, 0.000, 0.000, 0.000, 16:30:04.018, 1680381004018
27, 582.26, -234.23, -214.36, 0.00, 0.000, 0.000, 0.000, 16:30:04.047, 1680381004047
28, 575.63, -185.21, -202.41, 0.00, 0.000, 0.000, 0.000, 16:30:04.047, 1680381004047
29, 1548.56, 463.67, 386.16, 0.00, 0.000, 0.000, 0.000, 16:30:04.048, 1680381004048
30, 896.49, -47.95, -48.49, 0.00, 0.000, 0.000, 0.000, 16:30:04.048, 1680381004048
31, 438.26, -282.68, -288.64, 0.00, 0.000, 0.000, 0.000, 16:30:04.049, 1680381004049
32, 1254.28, 290.31, 208.22, 0.00, 0.000, 0.000, 0.000, 16:30:04.049, 1680381004049
33, 1296.31, 224.86, 195.35, 0.00, 0.000, 0.000, 0.000, 16:30:04.050, 1680381004050
34, 425.28, -319.37, -303.43, 0.00, 0.000, 0.000, 0.000, 16:30:04.050, 1680381004050
35, 868.67, 34.67, -30.49, 0.00, 0.000, 0.000, 0.000, 16:30:04.077, 1680381004077
36, 1581.92, 450.72, 388.87, 0.00, 0.000, 0.000, 0.000, 16:30:04.077, 1680381004077
37, 1554.38, -245.55, -223.52, 0.00, 0.000, 0.000, 0.000, 16:30:04.078, 1680381004078
38, 1556.35, -177.11, -196.82, 0.00, 0.000, 0.000, 0.000, 16:30:04.078, 1680381004078
39, 1569.49, 480.09, 397.49, 0.00, 0.000, 0.000, 0.000, 16:30:04.108, 1680381004108
40, 900.05, -38.07, -33.75, 0.00, 0.000, 0.000, 0.000, 16:30:04.108, 1680381004108
41, 447.11, -284.57, -265.64, 0.00, 0.000, 0.000, 0.000, 16:30:04.108, 1680381004108
42, 1275.16, 297.06, 226.62, 0.00, 0.000, 0.000, 0.000, 16:30:04.108, 1680381004108
43, 1313.40, 235.64, 214.34, 0.00, 0.000, 0.000, 0.000, 16:30:04.109, 1680381004109
44, 438.69, -310.57, -284.85, 0.00, 0.000, 0.000, 0.000, 16:30:04.109, 1680381004109
45, 893.35, 48.90, -6.68, 0.00, 0.000, 0.000, 0.000, 16:30:04.110, 1680381004110
46, 1603.75, 451.18, 404.92, 0.00, 0.000, 0.000, 0.000, 16:30:04.110, 1680381004110
47, 1559.90, -245.54, -220.00, 0.00, 0.000, 0.000, 0.000, 16:30:04.139, 1680381004139
48, 1563.77, -170.23, -192.70, 0.00, 0.000, 0.000, 0.000, 16:30:04.139, 1680381004139
49, 1584.65, 490.54, 408.48, 0.00, 0.000, 0.000, 0.000, 16:30:04.139, 1680381004139
50, 911.09, -32.74, -28.70, 0.00, 0.000, 0.000, 0.000, 16:30:04.139, 1680381004139
51, 459.35, -269.11, -256.18, 0.00, 0.000, 0.000, 0.000, 16:30:04.167, 1680381004167
52, 1295.26, 309.06, 247.17, 0.00, 0.000, 0.000, 0.000, 16:30:04.167, 1680381004167
53, 1318.31, 240.08, 232.99, 0.00, 0.000, 0.000, 0.000, 16:30:04.168, 1680381004168
54, 456.52, -299.95, -255.06, 0.00, 0.000, 0.000, 0.000, 16:30:04.168, 1680381004168
55, 907.49, 59.15, 11.62, 0.00, 0.000, 0.000, 0.000, 16:30:04.169, 1680381004169
56, 1609.72, 480.67, 419.81, 0.00, 0.000, 0.000, 0.000, 16:30:04.169, 1680381004169
57, 1567.87, -216.48, -221.32, 0.00, 0.000, 0.000, 0.000, 16:30:04.170, 1680381004170
58, 1568.56, -144.98, -206.43, 0.00, 0.000, 0.000, 0.000, 16:30:04.170, 1680381004170
59, 1576.62, 504.89, 386.21, 0.00, 0.000, 0.000, 0.000, 16:30:04.198, 1680381004198
60, 882.95, -49.02, -54.81, 0.00, 0.000, 0.000, 0.000, 16:30:04.198, 1680381004198
61, 421.59, -319.36, -293.96, 0.00, 0.000, 0.000, 0.000, 16:30:04.199, 1680381004199
62, 1264.75, 267.46, 223.52, 0.00, 0.000, 0.000, 0.000, 16:30:04.199, 1680381004199
63, 1310.92, 211.26, 209.44, 0.00, 0.000, 0.000, 0.000, 16:30:04.228, 1680381004228
64, 462.11, -310.10, -259.87, 0.00, 0.000, 0.000, 0.000, 16:30:04.228, 1680381004228
65, 917.23, 55.80, 12.28, 0.00, 0.000, 0.000, 0.000, 16:30:04.228, 1680381004228
66, 1617.59, 466.37, 414.42, 0.00, 0.000, 0.000, 0.000, 16:30:04.228, 1680381004228
67, 1571.49, -235.04, -209.79, 0.00, 0.000, 0.000, 0.000, 16:30:04.229, 1680381004229
68, 1583.02, -163.72, -187.79, 0.00, 0.000, 0.000, 0.000, 16:30:04.229, 1680381004229
69, 1583.57, 484.08, 406.23, 0.00, 0.000, 0.000, 0.000, 16:30:04.230, 1680381004230
70, 898.07, -47.82, -50.69, 0.00, 0.000, 0.000, 0.000, 16:30:04.230, 1680381004230
71, 440.98, -294.40, -293.31, 0.00, 0.000, 0.000, 0.000, 16:30:04.258, 1680381004258
72, 1275.05, 304.18, 211.85, 0.00, 0.000, 0.000, 0.000, 16:30:04.258, 1680381004258
73, 1299.79, 230.19, 189.23, 0.00, 0.000, 0.000, 0.000, 16:30:04.259, 1680381004259
74, 437.58, -309.44, -298.86, 0.00, 0.000, 0.000, 0.000, 16:30:04.259, 1680381004259
75, 886.91, 37.81, -20.01, 0.00, 0.000, 0.000, 0.000, 16:30:04.288, 1680381004288
76, 1588.86, 454.87, 390.28, 0.00, 0.000, 0.000, 0.000, 16:30:04.288, 1680381004288
77, 1556.07, -241.69, -245.06, 0.00, 0.000, 0.000, 0.000, 16:30:04.290, 1680381004290
78, 1565.94, -173.77, -233.24, 0.00, 0.000, 0.000, 0.000, 16:30:04.290, 1680381004290
79, 1573.59, 481.75, 361.27, 0.00, 0.000, 0.000, 0.000, 16:30:04.291, 1680381004291
80, 880.52, -51.30, -85.16, 0.00, 0.000, 0.000, 0.000, 16:30:04.291, 1680381004291
81, 453.06, -281.95, -287.58, 0.00, 0.000, 0.000, 0.000, 16:30:04.291, 1680381004291
82, 1276.37, 303.88, 247.82, 0.00, 0.000, 0.000, 0.000, 16:30:04.291, 1680381004291
83, 1279.29, 208.99, 239.91, 0.00, 0.000, 0.000, 0.000, 16:30:04.318, 1680381004318
84, 427.72, -319.71, -223.38, 0.00, 0.000, 0.000, 0.000, 16:30:04.318, 1680381004318
85, 880.37, 46.09, 44.57, 0.00, 0.000, 0.000, 0.000, 16:30:04.319, 1680381004319
86, 1573.46, 443.14, 434.79, 0.00, 0.000, 0.000, 0.000, 16:30:04.319, 1680381004319
87, 1537.73, -255.46, -204.44, 0.00, 0.000, 0.000, 0.000, 16:30:04.349, 1680381004349
88, 1549.44, -176.05, -212.80, 0.00, 0.000, 0.000, 0.000, 16:30:04.349, 1680381004349
89, 1558.50, 473.15, 362.44, 0.00, 0.000, 0.000, 0.000, 16:30:04.349, 1680381004349
90, 870.93, -58.48, -88.14, 0.00, 0.000, 0.000, 0.000, 16:30:04.349, 1680381004349
91, 434.74, -295.47, -310.25, 0.00, 0.000, 0.000, 0.000, 16:30:04.349, 1680381004349
92, 1266.88, 292.15, 219.32, 0.00, 0.000, 0.000, 0.000, 16:30:04.349, 1680381004349
93, 1288.21, 224.90, 217.62, 0.00, 0.000, 0.000, 0.000, 16:30:04.350, 1680381004350
94, 459.35, -313.67, -250.59, 0.00, 0.000, 0.000, 0.000, 16:30:04.350, 1680381004350
95, 877.40, 37.44, 20.04, 0.00, 0.000, 0.000, 0.000, 16:30:04.378, 1680381004378
96, 1593.53, 453.46, 427.87, 0.00, 0.000, 0.000, 0.000, 16:30:04.378, 1680381004378
97, 1558.21, -251.31, -175.63, 0.00, 0.000, 0.000, 0.000, 16:30:04.385, 1680381004385
98, 1565.71, -174.20, -146.06, 0.00, 0.000, 0.000, 0.000, 16:30:04.385, 1680381004385
99, 2543.72, 469.57, 447.77, 0.00, 0.000, 0.000, 0.000, 16:30:04.407, 1680381004407
100, 1845.12, -53.49, 6.26, 0.00, 0.000, 0.000, 0.000, 16:30:04.407, 1680381004407
101, 1405.25, -286.63, -226.91, 0.00, 0.000, 0.000, 0.000, 16:30:04.408, 1680381004408
102, 2229.53, 297.66, 267.42, 0.00, 0.000, 0.000, 0.000, 16:30:04.408, 1680381004408
103, 2218.65, 209.77, 235.20, 0.00, 0.000, 0.000, 0.000, 16:30:04.409, 1680381004409
104, 1420.23, -315.66, -250.88, 0.00, 0.000, 0.000, 0.000, 16:30:04.409, 1680381004409
105, 1850.03, 50.96, 18.46, 0.00, 0.000, 0.000, 0.000, 16:30:04.410, 1680381004410
106, 2539.77, 449.88, 426.52, 0.00, 0.000, 0.000, 0.000, 16:30:04.410, 1680381004410
107, 2512.17, -249.14, -185.75, 0.00, 0.000, 0.000, 0.000, 16:30:04.440, 1680381004440
108, 2516.51, -173.55, -146.39, 0.00, 0.000, 0.000, 0.000, 16:30:04.440, 1680381004440
109, 3484.53, 436.41, 431.72, 0.00, 0.000, 0.000, 0.000, 16:30:04.441, 1680381004441
110, 2811.86, -68.99, -4.14, 0.00, 0.000, 0.000, 0.000, 16:30:04.441, 1680381004441
111, 2375.74, -294.64, -227.00, 0.00, 0.000, 0.000, 0.000, 16:30:04.467, 1680381004467
112, 3210.22, 292.85, 280.42, 0.00, 0.000, 0.000, 0.000, 16:30:04.467, 1680381004467
113, 3217.77, 210.81, 233.56, 0.00, 0.000, 0.000, 0.000, 16:30:04.468, 1680381004468
114, 2383.01, -317.42, -253.14, 0.00, 0.000, 0.000, 0.000, 16:30:04.468, 1680381004468
115, 2866.71, 44.91, 6.92, 0.00, 0.000, 0.000, 0.000, 16:30:04.470, 1680381004470
116, 3536.64, 437.48, 386.47, 0.00, 0.000, 0.000, 0.000, 16:30:04.470, 1680381004470
117, 3495.42, -250.91, -247.93, 0.00, 0.000, 0.000, 0.000, 16:30:04.471, 1680381004471
118, 3528.13, -179.92, -221.31, 0.00, 0.000, 0.000, 0.000, 16:30:04.471, 1680381004471
119, 3530.64, 477.79, 367.79, 0.00, 0.000, 0.000, 0.000, 16:30:04.497, 1680381004497
120, 2847.47, -57.98, -72.48, 0.00, 0.000, 0.000, 0.000, 16:30:04.497, 1680381004497
121, 2427.24, -286.00, -282.09, 0.00, 0.000, 0.000, 0.000, 16:30:04.498, 1680381004498
122, 3257.44, 299.24, 241.91, 0.00, 0.000, 0.000, 0.000, 16:30:04.498, 1680381004498
123, 3276.40, 212.57, 223.79, 0.00, 0.000, 0.000, 0.000, 16:30:04.527, 1680381004527
124, 2431.61, -314.03, -244.30, 0.00, 0.000, 0.000, 0.000, 16:30:04.527, 1680381004527
125, 2899.79, 51.34, 40.78, 0.00, 0.000, 0.000, 0.000, 16:30:04.528, 1680381004528
126, 3581.25, 442.70, 446.55, 0.00, 0.000, 0.000, 0.000, 16:30:04.528, 1680381004528
127, 3547.15, -248.51, -191.74, 0.00, 0.000, 0.000, 0.000, 16:30:04.529, 1680381004529
128, 3569.29, -171.10, -168.73, 0.00, 0.000, 0.000, 0.000, 16:30:04.529, 1680381004529
129, 3589.99, 486.41, 422.61, 0.00, 0.000, 0.000, 0.000, 16:30:04.530, 1680381004530
130, 2878.52, -56.96, -49.37, 0.00, 0.000, 0.000, 0.000, 16:30:04.530, 1680381004530
131, 2450.97, -277.20, -274.98, 0.00, 0.000, 0.000, 0.000, 16:30:04.558, 1680381004558
132, 3277.31, 307.14, 236.56, 0.00, 0.000, 0.000, 0.000, 16:30:04.558, 1680381004558
133, 3306.03, 228.87, 241.76, 0.00, 0.000, 0.000, 0.000, 16:30:04.559, 1680381004559
134, 2441.93, -305.43, -226.76, 0.00, 0.000, 0.000, 0.000, 16:30:04.559, 1680381004559
135, 2912.65, 63.07, 96.37, 0.00, 0.000, 0.000, 0.000, 16:30:04.588, 1680381004588
136, 3557.70, 449.41, 467.64, 0.00, 0.000, 0.000, 0.000, 16:30:04.588, 1680381004588
137, 3528.97, -233.79, -147.27, 0.00, 0.000, 0.000, 0.000, 16:30:04.588, 1680381004588
138, 3550.10, -159.09, -137.47, 0.00, 0.000, 0.000, 0.000, 16:30:04.588, 1680381004588
139, 4530.10, 495.36, 458.69, 0.00, 0.000, 0.000, 0.000, 16:30:04.589, 1680381004589
140, 3827.52, -47.83, -7.59, 0.00, 0.000, 0.000, 0.000, 16:30:04.589, 1680381004589
141, 3402.15, -271.54, -239.17, 0.00, 0.000, 0.000, 0.000, 16:30:04.591, 1680381004591
142, 4241.82, 313.05, 242.85, 0.00, 0.000, 0.000, 0.000, 16:30:04.591, 1680381004591
143, 4236.35, 222.89, 174.47, 0.00, 0.000, 0.000, 0.000, 16:30:04.618, 1680381004618
144, 3372.17, -315.02, -326.38, 0.00, 0.000, 0.000, 0.000, 16:30:04.618, 1680381004618
145, 3845.96, 49.41, -40.29, 0.00, 0.000, 0.000, 0.000, 16:30:04.619, 1680381004619
146, 4521.53, 439.90, 363.93, 0.00, 0.000, 0.000, 0.000, 16:30:04.619, 1680381004619
147, 4484.00, -257.27, -250.82, 0.00, 0.000, 0.000, 0.000, 16:30:04.647, 1680381004647
148, 4531.59, -163.86, -218.83, 0.00, 0.000, 0.000, 0.000, 16:30:04.647, 1680381004647
149, 5508.43, 471.84, 366.53, 0.00, 0.000, 0.000, 0.000, 16:30:04.648, 1680381004648
150, 4809.32, -68.33, -91.04, 0.00, 0.000, 0.000, 0.000, 16:30:04.648, 1680381004648
151, 4387.31, -281.38, -308.63, 0.00, 0.000, 0.000, 0.000, 16:30:04.649, 1680381004649
152, 5228.75, 306.94, 228.39, 0.00, 0.000, 0.000, 0.000, 16:30:04.649, 1680381004649
153, 5217.99, 199.77, 181.38, 0.00, 0.000, 0.000, 0.000, 16:30:04.650, 1680381004650
154, 4378.90, -317.31, -301.63, 0.00, 0.000, 0.000, 0.000, 16:30:04.650, 1680381004650
155, 4836.27, 42.07, -19.57, 0.00, 0.000, 0.000, 0.000, 16:30:04.677, 1680381004677
156, 5516.66, 445.57, 361.71, 0.00, 0.000, 0.000, 0.000, 16:30:04.677, 1680381004677
157, 5488.29, -249.77, -266.51, 0.00, 0.000, 0.000, 0.000, 16:30:04.679, 1680381004679
158, 5515.18, -166.85, -239.98, 0.00, 0.000, 0.000, 0.000, 16:30:04.679, 1680381004679
159, 5525.06, 484.41, 360.66, 0.00, 0.000, 0.000, 0.000, 16:30:04.707, 1680381004707
160, 4812.63, -68.29, -106.94, 0.00, 0.000, 0.000, 0.000, 16:30:04.707, 1680381004707
161, 4391.90, -279.06, -326.11, 0.00, 0.000, 0.000, 0.000, 16:30:04.708, 1680381004708
162, 5220.57, 305.79, 193.97, 0.00, 0.000, 0.000, 0.000, 16:30:04.708, 1680381004708
163, 5201.91, 208.71, 163.62, 0.00, 0.000, 0.000, 0.000, 16:30:04.709, 1680381004709
164, 4373.90, -303.25, -287.22, 0.00, 0.000, 0.000, 0.000, 16:30:04.709, 1680381004709
165, 4843.76, 60.74, 10.54, 0.00, 0.000, 0.000, 0.000, 16:30:04.710, 1680381004710
166, 5502.48, 441.63, 393.54, 0.00, 0.000, 0.000, 0.000, 16:30:04.710, 1680381004710
167, 5477.62, -256.04, -221.54, 0.00, 0.000, 0.000, 0.000, 16:30:04.738, 1680381004738
168, 5508.24, -165.38, -204.59, 0.00, 0.000, 0.000, 0.000, 16:30:04.738, 1680381004738
169, 6475.30, 454.37, 346.66, 0.00, 0.000, 0.000, 0.000, 16:30:04.739, 1680381004739
170, 5760.97, -82.32, -121.51, 0.00, 0.000, 0.000, 0.000, 16:30:04.739, 1680381004739
171, 5341.01, -294.31, -353.55, 0.00, 0.000, 0.000, 0.000, 16:30:04.768, 1680381004768
172, 6173.39, 290.84, 149.07, 0.00, 0.000, 0.000, 0.000, 16:30:04.768, 1680381004768
173, 6160.58, 192.21, 115.77, 0.00, 0.000, 0.000, 0.000, 16:30:04.768, 1680381004768
174, 5322.94, -323.00, -340.48, 0.00, 0.000, 0.000, 0.000, 16:30:04.768, 1680381004768
175, 5786.60, 41.55, -44.18, 0.00, 0.000, 0.000, 0.000, 16:30:04.769, 1680381004769
176, 6457.74, 427.54, 354.35, 0.00, 0.000, 0.000, 0.000, 16:30:04.769, 1680381004769
177, 6425.12, -263.42, -257.99, 0.00, 0.000, 0.000, 0.000, 16:30:04.770, 1680381004770
178, 6449.60, -175.78, -210.71, 0.00, 0.000, 0.000, 0.000, 16:30:04.770, 1680381004770
179, 6450.07, 459.35, 378.74, 0.00, 0.000, 0.000, 0.000, 16:30:04.798, 1680381004798
180, 5739.90, -82.03, -81.92, 0.00, 0.000, 0.000, 0.000, 16:30:04.798, 1680381004798
181, 5315.44, -298.77, -302.15, 0.00, 0.000, 0.000, 0.000, 16:30:04.806, 1680381004806
182, 6165.08, 290.46, 201.34, 0.00, 0.000, 0.000, 0.000, 16:30:04.806, 1680381004806
183, 6152.82, 186.78, 162.18, 0.00, 0.000, 0.000, 0.000, 16:30:04.827, 1680381004827
184, 5316.86, -330.16, -321.24, 0.00, 0.000, 0.000, 0.000, 16:30:04.827, 1680381004827
185, 5788.92, 43.79, -41.21, 0.00, 0.000, 0.000, 0.000, 16:30:04.828, 1680381004828
186, 6451.18, 419.57, 348.40, 0.00, 0.000, 0.000, 0.000, 16:30:04.828, 1680381004828
187, 6417.31, -265.36, -259.80, 0.00, 0.000, 0.000, 0.000, 16:30:04.829, 1680381004829
188, 6471.68, -171.58, -198.73, 0.00, 0.000, 0.000, 0.000, 16:30:04.829, 1680381004829
189, 7446.94, 463.01, 388.61, 0.00, 0.000, 0.000, 0.000, 16:30:04.830, 1680381004830
190, 6738.15, -78.35, -65.42, 0.00, 0.000, 0.000, 0.000, 16:30:04.830, 1680381004830
191, 6328.23, -282.49, -266.50, 0.00, 0.000, 0.000, 0.000, 16:30:04.857, 1680381004857
192, 7174.01, 309.68, 243.73, 0.00, 0.000, 0.000, 0.000, 16:30:04.857, 1680381004857
193, 7132.28, 193.87, 180.03, 0.00, 0.000, 0.000, 0.000, 16:30:04.858, 1680381004858
194, 6298.07, -325.88, -294.68, 0.00, 0.000, 0.000, 0.000, 16:30:04.858, 1680381004858
195, 6776.24, 52.18, 2.91, 0.00, 0.000, 0.000, 0.000, 16:30:04.887, 1680381004887
196, 7434.51, 429.73, 375.53, 0.00, 0.000, 0.000, 0.000, 16:30:04.887, 1680381004887
197, 7395.48, -261.62, -239.50, 0.00, 0.000, 0.000, 0.000, 16:30:04.888, 1680381004888
198, 7442.59, -163.61, -183.14, 0.00, 0.000, 0.000, 0.000, 16:30:04.888, 1680381004888
199, 7443.29, 476.49, 416.91, 0.00, 0.000, 0.000, 0.000, 16:30:04.889, 1680381004889
200, 6734.24, -71.15, -39.88, 0.00, 0.000, 0.000, 0.000, 16:30:04.889, 1680381004889
0, -530.69, -275.24, -251.46, 0.00, 0.000, 0.000, 0.000, 16:30:04.890, 1680381004890
1, 312.09, 314.68, 256.07, 0.00, 0.000, 0.000, 0.000, 16:30:04.917, 1680381004917
2, 283.99, 196.69, 200.65, 0.00, 0.000, 0.000, 0.000, 16:30:04.917, 1680381004917
3, -543.41, -311.22, -267.81, 0.00, 0.000, 0.000, 0.000, 16:30:04.918, 1680381004918
4, -63.80, 66.03, 24.51, 0.00, 0.000, 0.000, 0.000, 16:30:04.918, 1680381004918
5, 598.54, 443.71, 404.41, 0.00, 0.000, 0.000, 0.000, 16:30:04.919, 1680381004919
6, 569.43, -252.16, -217.03, 0.00, 0.000, 0.000, 0.000, 16:30:04.919, 1680381004919
7, 610.73, -160.95, -179.35, 0.00, 0.000, 0.000, 0.000, 16:30:04.947, 1680381004947
8, 1588.09, 485.07, 409.87, 0.00, 0.000, 0.000, 0.000, 16:30:04.947, 1680381004947
9, 875.26, -65.48, -61.02, 0.00, 0.000, 0.000, 0.000, 16:30:04.948, 1680381004948
10, 453.48, -280.71, -273.65, 0.00, 0.000, 0.000, 0.000, 16:30:04.948, 1680381004948
11, 1290.16, 308.48, 243.69, 0.00, 0.000, 0.000, 0.000, 16:30:04.949, 1680381004949
12, 1259.92, 204.99, 182.15, 0.00, 0.000, 0.000, 0.000, 16:30:04.949, 1680381004949
13, 427.75, -306.86, -276.38, 0.00, 0.000, 0.000, 0.000, 16:30:04.978, 1680381004978
14, 906.10, 59.08, 22.62, 0.00, 0.000, 0.000, 0.000, 16:30:04.978, 1680381004978
15, 1562.73, 431.62, 401.64, 0.00, 0.000, 0.000, 0.000, 16:30:04.979, 1680381004979
16, 1531.97, -254.20, -214.60, 0.00, 0.000, 0.000, 0.000, 16:30:04.979, 1680381004979
17, 1573.35, -162.08, -169.01, 0.00, 0.000, 0.000, 0.000, 16:30:04.979, 1680381004979
18, 2546.22, 450.24, 399.42, 0.00, 0.000, 0.000, 0.000, 16:30:04.979, 1680381004979
19, 1832.40, -61.17, -46.21, 0.00, 0.000, 0.000, 0.000, 16:30:05.008, 1680381005008
20, 1424.69, -257.92, -272.10, 0.00, 0.000, 0.000, 0.000, 16:30:05.008, 1680381005008
21, 2261.17, 332.10, 215.64, 0.00, 0.000, 0.000, 0.000, 16:30:05.008, 1680381005008
22, 2216.23, 218.16, 149.39, 0.00, 0.000, 0.000, 0.000, 16:30:05.008, 1680381005008
23, 1382.64, -307.65, -322.29, 0.00, 0.000, 0.000, 0.000, 16:30:05.009, 1680381005009
24, 1857.10, 35.31, -21.71, 0.00, 0.000, 0.000, 0.000, 16:30:05.009, 1680381005009
25, 2527.15, 402.61, 364.58, 0.00, 0.000, 0.000, 0.000, 16:30:05.038, 1680381005038
26, 2514.58, -270.98, -222.36, 0.00, 0.000, 0.000, 0.000, 16:30:05.038, 1680381005038
27, 2574.90, -162.55, -164.25, 0.00, 0.000, 0.000, 0.000, 16:30:05.039, 1680381005039
28, 2575.10, 477.70, 433.07, 0.00, 0.000, 0.000, 0.000, 16:30:05.039, 1680381005039
29, 1852.81, -67.09, -31.00, 0.00, 0.000, 0.000, 0.000, 16:30:05.040, 1680381005040
30, 1439.59, -275.35, -253.82, 0.00, 0.000, 0.000, 0.000, 16:30:05.040, 1680381005040
31, 2278.94, 318.63, 259.95, 0.00, 0.000, 0.000, 0.000, 16:30:05.068, 1680381005068
32, 2239.44, 198.85, 188.81, 0.00, 0.000, 0.000, 0.000, 16:30:05.068, 1680381005068
33, 1427.07, -310.65, -277.60, 0.00, 0.000, 0.000, 0.000, 16:30:05.068, 1680381005068
34, 1893.54, 62.68, 9.37, 0.00, 0.000, 0.000, 0.000, 16:30:05.068, 1680381005068
35, 2536.44, 425.14, 376.13, 0.00, 0.000, 0.000, 0.000, 16:30:05.069, 1680381005069
36, 2510.16, -254.70, -227.80, 0.00, 0.000, 0.000, 0.000, 16:30:05.069, 1680381005069
37, 2558.50, -157.92, -182.39, 0.00, 0.000, 0.000, 0.000, 16:30:05.098, 1680381005098
38, 3536.87, 486.66, 413.66, 0.00, 0.000, 0.000, 0.000, 16:30:05.098, 1680381005098
39, 2803.57, -76.11, -60.31, 0.00, 0.000, 0.000, 0.000, 16:30:05.098, 1680381005098
40, 2413.66, -271.36, -274.25, 0.00, 0.000, 0.000, 0.000, 16:30:05.098, 1680381005098
41, 3263.44, 316.12, 229.44, 0.00, 0.000, 0.000, 0.000, 16:30:05.106, 1680381005106
42, 3214.85, 201.98, 160.08, 0.00, 0.000, 0.000, 0.000, 16:30:05.106, 1680381005106
43, 2403.15, -305.52, -302.31, 0.00, 0.000, 0.000, 0.000, 16:30:05.127, 1680381005127
44, 2882.92, 67.05, 6.39, 0.00, 0.000, 0.000, 0.000, 16:30:05.127, 1680381005127
45, 3523.77, 433.06, 405.20, 0.00, 0.000, 0.000, 0.000, 16:30:05.128, 1680381005128
46, 3495.16, -254.87, -173.24, 0.00, 0.000, 0.000, 0.000, 16:30:05.128, 1680381005128
47, 3543.53, -153.44, -102.40, 0.00, 0.000, 0.000, 0.000, 16:30:05.129, 1680381005129
48, 4520.25, 486.03, 491.18, 0.00, 0.000, 0.000, 0.000, 16:30:05.129, 1680381005129
49, 3792.08, -74.65, 8.67, 0.00, 0.000, 0.000, 0.000, 16:30:05.158, 1680381005158
50, 3392.37, -273.29, -232.49, 0.00, 0.000, 0.000, 0.000, 16:30:05.158, 1680381005158
51, 4240.51, 320.66, 232.58, 0.00, 0.000, 0.000, 0.000, 16:30:05.159, 1680381005159
52, 4197.85, 200.65, 133.75, 0.00, 0.000, 0.000, 0.000, 16:30:05.159, 1680381005159
53, 3378.42, -313.29, -352.51, 0.00, 0.000, 0.000, 0.000, 16:30:05.159, 1680381005159
54, 3860.15, 65.16, -53.22, 0.00, 0.000, 0.000, 0.000, 16:30:05.159, 1680381005159
55, 4513.33, 435.55, 329.96, 0.00, 0.000, 0.000, 0.000, 16:30:05.189, 1680381005189
56, 4492.11, -251.53, -259.89, 0.00, 0.000, 0.000, 0.000, 16:30:05.189, 1680381005189
57, 4550.83, -143.70, -183.58, 0.00, 0.000, 0.000, 0.000, 16:30:05.190, 1680381005190
58, 5515.28, 461.17, 385.38, 0.00, 0.000, 0.000, 0.000, 16:30:05.190, 1680381005190
59, 4760.60, -77.78, -63.65, 0.00, 0.000, 0.000, 0.000, 16:30:05.192, 1680381005192
60, 4362.92, -277.24, -259.42, 0.00, 0.000, 0.000, 0.000, 16:30:05.192, 1680381005192
61, 5215.17, 318.93, 273.57, 0.00, 0.000, 0.000, 0.000, 16:30:05.218, 1680381005218
62, 5156.59, 193.33, 220.68, 0.00, 0.000, 0.000, 0.000, 16:30:05.218, 1680381005218
63, 4336.82, -310.85, -251.45, 0.00, 0.000, 0.000, 0.000, 16:30:05.218, 1680381005218
64, 4834.60, 78.87, 41.75, 0.00, 0.000, 0.000, 0.000, 16:30:05.218, 1680381005218
65, 5473.61, 435.60, 393.40, 0.00, 0.000, 0.000, 0.000, 16:30:05.219, 1680381005219
66, 5437.91, -250.24, -251.16, 0.00, 0.000, 0.000, 0.000, 16:30:05.219, 1680381005219
67, 5489.04, -148.65, -213.89, 0.00, 0.000, 0.000, 0.000, 16:30:05.248, 1680381005248
68, 5490.46, 489.78, 381.57, 0.00, 0.000, 0.000, 0.000, 16:30:05.248, 1680381005248
69, 4770.30, -65.50, -94.22, 0.00, 0.000, 0.000, 0.000, 16:30:05.249, 1680381005249
70, 4377.47, -267.92, -293.42, 0.00, 0.000, 0.000, 0.000, 16:30:05.249, 1680381005249
71, 5230.37, 338.81, 246.88, 0.00, 0.000, 0.000, 0.000, 16:30:05.249, 1680381005249
72, 5170.76, 208.15, 186.42, 0.00, 0.000, 0.000, 0.000, 16:30:05.249, 1680381005249
73, 4357.47, -310.43, -266.21, 0.00, 0.000, 0.000, 0.000, 16:30:05.278, 1680381005278
74, 4846.19, 71.27, 40.16, 0.00, 0.000, 0.000, 0.000, 16:30:05.278, 1680381005278
75, 5478.90, 424.72, 397.37, 0.00, 0.000, 0.000, 0.000, 16:30:05.279, 1680381005279
76, 5452.63, -255.45, -219.03, 0.00, 0.000, 0.000, 0.000, 16:30:05.279, 1680381005279
77, 5522.15, -138.10, -165.40, 0.00, 0.000, 0.000, 0.000, 16:30:05.279, 1680381005279
78, 6501.35, 496.35, 406.88, 0.00, 0.000, 0.000, 0.000, 16:30:05.279, 1680381005279
79, 5753.28, -71.22, -87.22, 0.00, 0.000, 0.000, 0.000, 16:30:05.308, 1680381005308
80, 5360.73, -267.75, -297.80, 0.00, 0.000, 0.000, 0.000, 16:30:05.308, 1680381005308
81, 6211.50, 334.80, 226.50, 0.00, 0.000, 0.000, 0.000, 16:30:05.309, 1680381005309
82, 6164.19, 211.87, 154.63, 0.00, 0.000, 0.000, 0.000, 16:30:05.309, 1680381005309
83, 5344.59, -297.63, -299.16, 0.00, 0.000, 0.000, 0.000, 16:30:05.310, 1680381005310
84, 5838.73, 82.30, 0.30, 0.00, 0.000, 0.000, 0.000, 16:30:05.310, 1680381005310
85, 6465.97, 441.64, 385.11, 0.00, 0.000, 0.000, 0.000, 16:30:05.337, 1680381005337
86, 6450.85, -234.99, -224.88, 0.00, 0.000, 0.000, 0.000, 16:30:05.337, 1680381005337
87, 6529.92, -126.83, -160.41, 0.00, 0.000, 0.000, 0.000, 16:30:05.338, 1680381005338
88, 7477.61, 488.11, 407.99, 0.00, 0.000, 0.000, 0.000, 16:30:05.338, 1680381005338
89, 6744.34, -73.55, -81.97, 0.00, 0.000, 0.000, 0.000, 16:30:05.339, 1680381005339
90, 6343.38, -270.29, -278.83, 0.00, 0.000, 0.000, 0.000, 16:30:05.339, 1680381005339
91, 7216.55, 333.38, 243.82, 0.00, 0.000, 0.000, 0.000, 16:30:05.367, 1680381005367
92, 7148.59, 200.04, 157.75, 0.00, 0.000, 0.000, 0.000, 16:30:05.367, 1680381005367
93, 6343.58, -295.54, -297.19, 0.00, 0.000, 0.000, 0.000, 16:30:05.368, 1680381005368
94, 6849.74, 85.31, 10.84, 0.00, 0.000, 0.000, 0.000, 16:30:05.368, 1680381005368
95, 7473.68, 422.34, 383.57, 0.00, 0.000, 0.000, 0.000, 16:30:05.369, 1680381005369
96, 7443.88, -251.85, -209.42, 0.00, 0.000, 0.000, 0.000, 16:30:05.369, 1680381005369
97, 7496.45, -133.70, -119.62, 0.00, 0.000, 0.000, 0.000, 16:30:05.398, 1680381005398
98, 8464.70, 492.16, 484.16, 0.00, 0.000, 0.000, 0.000, 16:30:05.398, 1680381005398
99, 7726.58, -73.78, 6.71, 0.00, 0.000, 0.000, 0.000, 16:30:05.398, 1680381005398
100, 7359.55, -270.68, -222.70, 0.00, 0.000, 0.000, 0.000, 16:30:05.398, 1680381005398
101, 8164.46, 334.29, 262.89, 0.00, 0.000, 0.000, 0.000, 16:30:05.399, 1680381005399
102, 8119.11, 189.50, 165.20, 0.00, 0.000, 0.000, 0.000, 16:30:05.399, 1680381005399
103, 7306.89, -307.89, -295.40, 0.00, 0.000, 0.000, 0.000, 16:30:05.427, 1680381005427
104, 7800.30, 77.65, 6.39, 0.00, 0.000, 0.000, 0.000, 16:30:05.427, 1680381005427
105, 8410.47, 420.41, 352.21, 0.00, 0.000, 0.000, 0.000, 16:30:05.428, 1680381005428
106, 8386.08, -265.11, -240.40, 0.00, 0.000, 0.000, 0.000, 16:30:05.428, 1680381005428
107, 8456.70, -145.82, -168.27, 0.00, 0.000, 0.000, 0.000, 16:30:05.429, 1680381005429
108, 9429.50, 485.18, 437.87, 0.00, 0.000, 0.000, 0.000, 16:30:05.429, 1680381005429
109, 8662.80, -95.93, -42.94, 0.00, 0.000, 0.000, 0.000, 16:30:05.458, 1680381005458
110, 8286.37, -276.77, -212.66, 0.00, 0.000, 0.000, 0.000, 16:30:05.458, 1680381005458
111, 9148.44, 313.15, 317.71, 0.00, 0.000, 0.000, 0.000, 16:30:05.458, 1680381005458
112, 9067.93, 177.88, 237.40, 0.00, 0.000, 0.000, 0.000, 16:30:05.458, 1680381005458
113, 8265.26, -328.74, -222.62, 0.00, 0.000, 0.000, 0.000, 16:30:05.459, 1680381005459
114, 8766.34, 56.32, 60.70, 0.00, 0.000, 0.000, 0.000, 16:30:05.459, 1680381005459
115, 9370.66, 399.88, 402.34, 0.00, 0.000, 0.000, 0.000, 16:30:05.488, 1680381005488
116, 9369.10, -267.29, -233.97, 0.00, 0.000, 0.000, 0.000, 16:30:05.488, 1680381005488
117, 9468.77, -151.80, -163.36, 0.00, 0.000, 0.000, 0.000, 16:30:05.489, 1680381005489
118, 10430.07, 483.27, 414.60, 0.00, 0.000, 0.000, 0.000, 16:30:05.489, 1680381005489
119, 9684.75, -90.92, -51.46, 0.00, 0.000, 0.000, 0.000, 16:30:05.490, 1680381005490
120, 9316.72, -271.72, -243.39, 0.00, 0.000, 0.000, 0.000, 16:30:05.490, 1680381005490
121, 10188.06, 339.59, 312.66, 0.00, 0.000, 0.000, 0.000, 16:30:05.517, 1680381005517
122, 10105.82, 191.00, 220.92, 0.00, 0.000, 0.000, 0.000, 16:30:05.517, 1680381005517
123, 9296.30, -301.09, -208.71, 0.00, 0.000, 0.000, 0.000, 16:30:05.518, 1680381005518
124, 9814.06, 90.79, 88.28, 0.00, 0.000, 0.000, 0.000, 16:30:05.518, 1680381005518
125, 10428.24, 434.03, 451.52, 0.00, 0.000, 0.000, 0.000, 16:30:05.519, 1680381005519
126, 10409.03, -255.10, -186.37, 0.00, 0.000, 0.000, 0.000, 16:30:05.519, 1680381005519
127, 10460.92, -135.12, -134.76, 0.00, 0.000, 0.000, 0.000, 16:30:05.547, 1680381005547
128, 11425.67, 499.16, 421.37, 0.00, 0.000, 0.000, 0.000, 16:30:05.547, 1680381005547
129, 10673.67, -77.42, -66.13, 0.00, 0.000, 0.000, 0.000, 16:30:05.548, 1680381005548
130, 10279.42, -276.85, -277.96, 0.00, 0.000, 0.000, 0.000, 16:30:05.548, 1680381005548
131, 11159.62, 345.74, 254.62, 0.00, 0.000, 0.000, 0.000, 16:30:05.556, 1680381005556
132, 11061.55, 185.98, 165.43, 0.00, 0.000, 0.000, 0.000, 16:30:05.556, 1680381005556
133, 10258.87, -304.45, -286.15, 0.00, 0.000, 0.000, 0.000, 16:30:05.577, 1680381005577
134, 10749.79, 75.30, 31.48, 0.00, 0.000, 0.000, 0.000, 16:30:05.577, 1680381005577
135, 11366.88, 419.03, 375.85, 0.00, 0.000, 0.000, 0.000, 16:30:05.578, 1680381005578
136, 11338.11, -264.13, -251.88, 0.00, 0.000, 0.000, 0.000, 16:30:05.578, 1680381005578
137, 11399.75, -164.05, -203.79, 0.00, 0.000, 0.000, 0.000, 16:30:05.579, 1680381005579
138, 12366.14, 474.88, 375.92, 0.00, 0.000, 0.000, 0.000, 16:30:05.579, 1680381005579
139, 11611.68, -106.34, -113.99, 0.00, 0.000, 0.000, 0.000, 16:30:05.608, 1680381005608
140, 11244.00, -288.11, -313.11, 0.00, 0.000, 0.000, 0.000, 16:30:05.608, 1680381005608
141, 12112.58, 316.92, 201.06, 0.00, 0.000, 0.000, 0.000, 16:30:05.609, 1680381005609
142, 12023.26, 167.14, 105.85, 0.00, 0.000, 0.000, 0.000, 16:30:05.609, 1680381005609
143, 11219.48, -325.19, -349.64, 0.00, 0.000, 0.000, 0.000, 16:30:05.610, 1680381005610
144, 11732.66, 62.49, -23.21, 0.00, 0.000, 0.000, 0.000, 16:30:05.610, 1680381005610
145, 12342.10, 411.22, 321.13, 0.00, 0.000, 0.000, 0.000, 16:30:05.638, 1680381005638
146, 12298.94, -283.51, -295.76, 0.00, 0.000, 0.000, 0.000, 16:30:05.638, 1680381005638
147, 12389.14, -152.91, -219.19, 0.00, 0.000, 0.000, 0.000, 16:30:05.639, 1680381005639
148, 13364.39, 474.04, 363.74, 0.00, 0.000, 0.000, 0.000, 16:30:05.639, 1680381005639
149, 12605.68, -101.59, -131.50, 0.00, 0.000, 0.000, 0.000, 16:30:05.640, 1680381005640
150, 12234.97, -278.82, -319.08, 0.00, 0.000, 0.000, 0.000, 16:30:05.640, 1680381005640
151, 13096.48, 324.15, 209.23, 0.00, 0.000, 0.000, 0.000, 16:30:05.668, 1680381005668
152, 13000.42, 168.88, 129.32, 0.00, 0.000, 0.000, 0.000, 16:30:05.668, 1680381005668
153, 12190.88, -329.17, -309.09, 0.00, 0.000, 0.000, 0.000, 16:30:05.668, 1680381005668
154, 12704.78, 77.51, 15.47, 0.00, 0.000, 0.000, 0.000, 16:30:05.668, 1680381005668
155, 13299.31, 403.84, 353.50, 0.00, 0.000, 0.000, 0.000, 16:30:05.669, 1680381005669
156, 13275.49, -274.22, -262.79, 0.00, 0.000, 0.000, 0.000, 16:30:05.669, 1680381005669
157, 13367.30, -145.85, -197.15, 0.00, 0.000, 0.000, 0.000, 16:30:05.698, 1680381005698
158, 14323.37, 485.49, 388.30, 0.00, 0.000, 0.000, 0.000, 16:30:05.698, 1680381005698
159, 13568.39, -95.56, -117.50, 0.00, 0.000, 0.000, 0.000, 16:30:05.698, 1680381005698
160, 13203.03, -281.60, -307.30, 0.00, 0.000, 0.000, 0.000, 16:30:05.698, 1680381005698
161, 14071.03, 325.59, 221.04, 0.00, 0.000, 0.000, 0.000, 16:30:05.699, 1680381005699
162, 13963.36, 165.58, 120.74, 0.00, 0.000, 0.000, 0.000, 16:30:05.699, 1680381005699
163, 13175.04, -310.32, -314.42, 0.00, 0.000, 0.000, 0.000, 16:30:05.727, 1680381005727
164, 13690.21, 85.36, -3.75, 0.00, 0.000, 0.000, 0.000, 16:30:05.727, 1680381005727
165, 14291.71, 415.60, 347.71, 0.00, 0.000, 0.000, 0.000, 16:30:05.728, 1680381005728
166, 14279.62, -265.35, -246.33, 0.00, 0.000, 0.000, 0.000, 16:30:05.728, 1680381005728
167, 14355.66, -141.50, -174.63, 0.00, 0.000, 0.000, 0.000, 16:30:05.729, 1680381005729
168, 15317.00, 485.26, 413.27, 0.00, 0.000, 0.000, 0.000, 16:30:05.729, 1680381005729
169, 14551.84, -100.19, -78.40, 0.00, 0.000, 0.000, 0.000, 16:30:05.757, 1680381005757
170, 14178.87, -273.63, -261.53, 0.00, 0.000, 0.000, 0.000, 16:30:05.757, 1680381005757
171, 15037.97, 325.77, 260.93, 0.00, 0.000, 0.000, 0.000, 16:30:05.758, 1680381005758
172, 14943.88, 176.84, 167.95, 0.00, 0.000, 0.000, 0.000, 16:30:05.758, 1680381005758
173, 14150.34, -313.28, -282.48, 0.00, 0.000, 0.000, 0.000, 16:30:05.759, 1680381005759
174, 14671.15, 82.36, 30.45, 0.00, 0.000, 0.000, 0.000, 16:30:05.759, 1680381005759
175, 15262.60, 411.82, 368.45, 0.00, 0.000, 0.000, 0.000, 16:30:05.787, 1680381005787
176, 15233.81, -268.20, -249.91, 0.00, 0.000, 0.000, 0.000, 16:30:05.787, 1680381005787
177, 15340.76, -135.98, -170.13, 0.00, 0.000, 0.000, 0.000, 16:30:05.789, 1680381005789
178, 16301.54, 486.24, 417.43, 0.00, 0.000, 0.000, 0.000, 16:30:05.789, 1680381005789
179, 15535.96, -88.66, -63.79, 0.00, 0.000, 0.000, 0.000, 16:30:05.789, 1680381005789
180, 15184.29, -256.84, -242.14, 0.00, 0.000, 0.000, 0.000, 16:30:05.789, 1680381005789
181, 16049.08, 356.65, 271.12, 0.00, 0.000, 0.000, 0.000, 16:30:05.817, 1680381005817
182, 15924.94, 199.61, 158.56, 0.00, 0.000, 0.000, 0.000, 16:30:05.817, 1680381005817
183, 15132.55, -283.81, -302.49, 0.00, 0.000, 0.000, 0.000, 16:30:05.818, 1680381005818
184, 15643.55, 118.51, 9.59, 0.00, 0.000, 0.000, 0.000, 16:30:05.818, 1680381005818
185, 16217.00, 408.50, 339.28, 0.00, 0.000, 0.000, 0.000, 16:30:05.819, 1680381005819
186, 16201.29, -297.12, -253.18, 0.00, 0.000, 0.000, 0.000, 16:30:05.819, 1680381005819
187, 16299.10, -175.46, -170.19, 0.00, 0.000, 0.000, 0.000, 16:30:05.847, 1680381005847
188, 17272.06, 468.08, 437.80, 0.00, 0.000, 0.000, 0.000, 16:30:05.847, 1680381005847
189, 16530.42, -88.81, -37.86, 0.00, 0.000, 0.000, 0.000, 16:30:05.848, 1680381005848
190, 16177.25, -256.98, -219.32, 0.00, 0.000, 0.000, 0.000, 16:30:05.848, 1680381005848
191, 17051.19, 349.48, 301.11, 0.00, 0.000, 0.000, 0.000, 16:30:05.849, 1680381005849
192, 16925.61, 181.86, 189.96, 0.00, 0.000, 0.000, 0.000, 16:30:05.849, 1680381005849
193, 16128.31, -306.74, -265.61, 0.00, 0.000, 0.000, 0.000, 16:30:05.877, 1680381005877
194, 16645.55, 93.20, 49.94, 0.00, 0.000, 0.000, 0.000, 16:30:05.877, 1680381005877
195, 17227.18, 414.84, 376.03, 0.00, 0.000, 0.000, 0.000, 16:30:05.879, 1680381005879
196, 17208.24, -262.96, -236.91, 0.00, 0.000, 0.000, 0.000, 16:30:05.879, 1680381005879
197, 17297.16, -137.49, -158.22, 0.00, 0.000, 0.000, 0.000, 16:30:05.880, 1680381005880
198, 18265.10, 488.05, 430.55, 0.00, 0.000, 0.000, 0.000, 16:30:05.880, 1680381005880
199, 17488.96, -95.65, -68.20, 0.00, 0.000, 0.000, 0.000, 16:30:05.909, 1680381005909
200, 17131.42, -269.21, -248.20, 0.00, 0.000, 0.000, 0.000, 16:30:05.909, 1680381005909
0, 363.79, 342.07, 292.18, 0.00, 0.000, 0.000, 0.000, 16:30:05.909, 1680381005909
1, 238.13, 166.68, 164.91, 0.00, 0.000, 0.000, 0.000, 16:30:05.911, 1680381005911
2, -540.51, -306.01, -289.33, 0.00, 0.000, 0.000, 0.000, 16:30:05.911, 1680381005911
3, -18.07, 89.90, 2.37, 0.00, 0.000, 0.000, 0.000, 16:30:05.912, 1680381005912
4, 558.51, 412.60, 327.36, 0.00, 0.000, 0.000, 0.000, 16:30:05.912, 1680381005912
5, 540.01, -260.67, -264.60, 0.00, 0.000, 0.000, 0.000, 16:30:05.937, 1680381005937
6, 626.48, -133.85, -159.52, 0.00, 0.000, 0.000, 0.000, 16:30:05.937, 1680381005937
7, 1584.46, 482.15, 458.39, 0.00, 0.000, 0.000, 0.000, 16:30:05.938, 1680381005938
8, 802.28, -103.96, -19.17, 0.00, 0.000, 0.000, 0.000, 16:30:05.938, 1680381005938
9, 459.45, -267.64, -172.95, 0.00, 0.000, 0.000, 0.000, 16:30:05.967, 1680381005967
10, 1322.59, 339.63, 340.10, 0.00, 0.000, 0.000, 0.000, 16:30:05.967, 1680381005967
11, 1197.72, 167.99, 193.54, 0.00, 0.000, 0.000, 0.000, 16:30:05.968, 1680381005968
12, 412.51, -316.32, -295.68, 0.00, 0.000, 0.000, 0.000, 16:30:05.968, 1680381005968
13, 943.94, 86.95, -16.12, 0.00, 0.000, 0.000, 0.000, 16:30:05.969, 1680381005969
14, 1525.45, 406.62, 294.43, 0.00, 0.000, 0.000, 0.000, 16:30:05.969, 1680381005969
15, 1512.34, -264.83, -311.54, 0.00, 0.000, 0.000, 0.000, 16:30:05.970, 1680381005970
16, 1613.14, -140.35, -215.36, 0.00, 0.000, 0.000, 0.000, 16:30:05.970, 1680381005970
17, 2567.27, 488.88, 391.23, 0.00, 0.000, 0.000, 0.000, 16:30:05.997, 1680381005997
18, 1795.58, -92.64, -96.95, 0.00, 0.000, 0.000, 0.000, 16:30:05.997, 1680381005997
19, 1450.63, -268.16, -263.61, 0.00, 0.000, 0.000, 0.000, 16:30:05.998, 1680381005998
20, 2317.80, 337.25, 263.30, 0.00, 0.000, 0.000, 0.000, 16:30:05.998, 1680381005998
21, 2178.76, 154.01, 156.20, 0.00, 0.000, 0.000, 0.000, 16:30:06.028, 1680381006028
22, 1390.86, -320.97, -282.02, 0.00, 0.000, 0.000, 0.000, 16:30:06.028, 1680381006028
23, 1905.53, 75.88, 42.45, 0.00, 0.000, 0.000, 0.000, 16:30:06.029, 1680381006029
24, 2480.73, 393.95, 369.93, 0.00, 0.000, 0.000, 0.000, 16:30:06.029, 1680381006029
25, 2478.24, -269.55, -239.22, 0.00, 0.000, 0.000, 0.000, 16:30:06.030, 1680381006030
26, 2579.19, -139.72, -171.35, 0.00, 0.000, 0.000, 0.000, 16:30:06.030, 1680381006030
27, 3538.87, 490.30, 394.94, 0.00, 0.000, 0.000, 0.000, 16:30:06.030, 1680381006030
28, 2763.10, -89.07, -112.80, 0.00, 0.000, 0.000, 0.000, 16:30:06.030, 1680381006030
29, 2412.33, -253.06, -299.52, 0.00, 0.000, 0.000, 0.000, 16:30:06.057, 1680381006057
30, 3293.57, 348.74, 243.12, 0.00, 0.000, 0.000, 0.000, 16:30:06.057, 1680381006057
31, 3169.14, 171.69, 140.81, 0.00, 0.000, 0.000, 0.000, 16:30:06.065, 1680381006065
32, 2392.52, -303.89, -301.58, 0.00, 0.000, 0.000, 0.000, 16:30:06.065, 1680381006065
33, 2922.89, 100.58, 30.58, 0.00, 0.000, 0.000, 0.000, 16:30:06.088, 1680381006088
34, 3493.67, 411.29, 369.24, 0.00, 0.000, 0.000, 0.000, 16:30:06.088, 1680381006088
35, 3481.46, -263.83, -232.19, 0.00, 0.000, 0.000, 0.000, 16:30:06.088, 1680381006088
36, 3581.09, -128.31, -157.14, 0.00, 0.000, 0.000, 0.000, 16:30:06.088, 1680381006088
37, 4539.86, 481.45, 418.36, 0.00, 0.000, 0.000, 0.000, 16:30:06.089, 1680381006089
38, 3754.43, -96.75, -89.54, 0.00, 0.000, 0.000, 0.000, 16:30:06.089, 1680381006089
39, 3407.23, -263.45, -275.14, 0.00, 0.000, 0.000, 0.000, 16:30:06.090, 1680381006090
40, 4288.54, 344.89, 255.83, 0.00, 0.000, 0.000, 0.000, 16:30:06.090, 1680381006090
41, 4146.92, 162.28, 139.34, 0.00, 0.000, 0.000, 0.000, 16:30:06.118, 1680381006118
42, 3370.67, -308.35, -300.00, 0.00, 0.000, 0.000, 0.000, 16:30:06.118, 1680381006118
43, 3907.21, 100.54, 37.41, 0.00, 0.000, 0.000, 0.000, 16:30:06.118, 1680381006118
44, 4480.19, 408.68, 372.36, 0.00, 0.000, 0.000, 0.000, 16:30:06.118, 1680381006118
45, 4452.99, -265.57, -226.73, 0.00, 0.000, 0.000, 0.000, 16:30:06.148, 1680381006148
46, 4557.78, -132.72, -149.10, 0.00, 0.000, 0.000, 0.000, 16:30:06.148, 1680381006148
47, 5520.09, 488.65, 428.16, 0.00, 0.000, 0.000, 0.000, 16:30:06.148, 1680381006148
48, 4749.23, -91.01, -71.76, 0.00, 0.000, 0.000, 0.000, 16:30:06.148, 1680381006148
49, 4400.94, -257.09, -246.72, 0.00, 0.000, 0.000, 0.000, 16:30:06.149, 1680381006149
50, 5277.90, 352.20, 279.11, 0.00, 0.000, 0.000, 0.000, 16:30:06.149, 1680381006149
51, 5130.26, 162.59, 142.68, 0.00, 0.000, 0.000, 0.000, 16:30:06.150, 1680381006150
52, 4360.99, -308.29, -300.96, 0.00, 0.000, 0.000, 0.000, 16:30:06.150, 1680381006150
53, 4893.58, 105.82, 29.65, 0.00, 0.000, 0.000, 0.000, 16:30:06.178, 1680381006178
54, 5466.49, 413.95, 355.23, 0.00, 0.000, 0.000, 0.000, 16:30:06.178, 1680381006178
55, 5456.17, -260.47, -237.75, 0.00, 0.000, 0.000, 0.000, 16:30:06.178, 1680381006178
56, 5553.06, -124.28, -129.02, 0.00, 0.000, 0.000, 0.000, 16:30:06.178, 1680381006178
57, 6508.48, 493.23, 463.29, 0.00, 0.000, 0.000, 0.000, 16:30:06.207, 1680381006207
58, 5724.48, -92.91, -31.61, 0.00, 0.000, 0.000, 0.000, 16:30:06.207, 1680381006207
59, 5389.99, -245.36, -201.14, 0.00, 0.000, 0.000, 0.000, 16:30:06.208, 1680381006208
60, 6246.40, 352.54, 303.35, 0.00, 0.000, 0.000, 0.000, 16:30:06.208, 1680381006208
61, 6097.00, 162.49, 146.21, 0.00, 0.000, 0.000, 0.000, 16:30:06.209, 1680381006209
62, 5344.91, -297.77, -300.67, 0.00, 0.000, 0.000, 0.000, 16:30:06.209, 1680381006209
63, 5868.49, 103.81, 20.02, 0.00, 0.000, 0.000, 0.000, 16:30:06.210, 1680381006210
64, 6443.70, 403.59, 343.01, 0.00, 0.000, 0.000, 0.000, 16:30:06.210, 1680381006210
65, 6407.91, -266.00, -248.40, 0.00, 0.000, 0.000, 0.000, 16:30:06.237, 1680381006237
66, 6539.94, -126.47, -173.46, 0.00, 0.000, 0.000, 0.000, 16:30:06.237, 1680381006237
67, 7475.45, 491.76, 416.42, 0.00, 0.000, 0.000, 0.000, 16:30:06.238, 1680381006238
68, 6703.85, -102.99, -75.49, 0.00, 0.000, 0.000, 0.000, 16:30:06.238, 1680381006238
69, 6366.91, -269.89, -230.66, 0.00, 0.000, 0.000, 0.000, 16:30:06.267, 1680381006267
70, 7259.58, 354.85, 316.48, 0.00, 0.000, 0.000, 0.000, 16:30:06.267, 1680381006267
71, 7081.67, 153.11, 181.03, 0.00, 0.000, 0.000, 0.000, 16:30:06.268, 1680381006268
72, 6310.97, -316.01, -256.83, 0.00, 0.000, 0.000, 0.000, 16:30:06.268, 1680381006268
73, 6854.65, 100.15, 68.66, 0.00, 0.000, 0.000, 0.000, 16:30:06.269, 1680381006269
74, 7414.52, 409.66, 374.25, 0.00, 0.000, 0.000, 0.000, 16:30:06.269, 1680381006269
75, 7379.36, -273.24, -255.20, 0.00, 0.000, 0.000, 0.000, 16:30:06.270, 1680381006270
76, 7514.96, -137.76, -179.82, 0.00, 0.000, 0.000, 0.000, 16:30:06.270, 1680381006270
77, 8454.98, 491.97, 416.63, 0.00, 0.000, 0.000, 0.000, 16:30:06.297, 1680381006297
78, 7659.94, -98.84, -93.88, 0.00, 0.000, 0.000, 0.000, 16:30:06.297, 1680381006297
79, 7339.36, -267.41, -270.27, 0.00, 0.000, 0.000, 0.000, 16:30:06.299, 1680381006299
80, 8207.52, 346.74, 282.51, 0.00, 0.000, 0.000, 0.000, 16:30:06.299, 1680381006299
81, 8069.27, 152.79, 162.70, 0.00, 0.000, 0.000, 0.000, 16:30:06.328, 1680381006328
82, 7282.85, -324.71, -275.62, 0.00, 0.000, 0.000, 0.000, 16:30:06.328, 1680381006328
83, 7810.25, 92.09, 60.28, 0.00, 0.000, 0.000, 0.000, 16:30:06.330, 1680381006330
84, 8370.99, 387.60, 362.18, 0.00, 0.000, 0.000, 0.000, 16:30:06.330, 1680381006330
85, 8360.00, -274.88, -232.05, 0.00, 0.000, 0.000, 0.000, 16:30:06.330, 1680381006330
86, 8479.40, -135.10, -144.28, 0.00, 0.000, 0.000, 0.000, 16:30:06.330, 1680381006330
87, 8480.71, 484.77, 435.08, 0.00, 0.000, 0.000, 0.000, 16:30:06.331, 1680381006331
88, 7678.60, -119.56, -82.28, 0.00, 0.000, 0.000, 0.000, 16:30:06.331, 1680381006331
89, 7339.93, -274.80, -271.12, 0.00, 0.000, 0.000, 0.000, 16:30:06.357, 1680381006357
90, 8218.78, 335.92, 274.58, 0.00, 0.000, 0.000, 0.000, 16:30:06.358, 1680381006358
91, 8077.28, 159.50, 148.32, 0.00, 0.000, 0.000, 0.000, 16:30:06.358, 1680381006358
92, 7314.33, -310.41, -272.86, 0.00, 0.000, 0.000, 0.000, 16:30:06.358, 1680381006358
93, 7868.60, 107.76, 63.28, 0.00, 0.000, 0.000, 0.000, 16:30:06.387, 1680381006387
94, 8439.46, 404.81, 396.64, 0.00, 0.000, 0.000, 0.000, 16:30:06.387, 1680381006387
95, 8423.57, -270.16, -209.02, 0.00, 0.000, 0.000, 0.000, 16:30:06.388, 1680381006388
96, 8524.31, -125.32, -125.24, 0.00, 0.000, 0.000, 0.000, 16:30:06.388, 1680381006388
97, 9479.93, 496.99, 457.76, 0.00, 0.000, 0.000, 0.000, 16:30:06.389, 1680381006389
98, 8702.78, -97.67, -44.47, 0.00, 0.000, 0.000, 0.000, 16:30:06.389, 1680381006389
99, 8370.19, -243.80, -216.72, 0.00, 0.000, 0.000, 0.000, 16:30:06.390, 1680381006390
100, 9231.42, 362.47, 297.79, 0.00, 0.000, 0.000, 0.000, 16:30:06.390, 1680381006390
101, 9066.06, 156.51, 148.48, 0.00, 0.000, 0.000, 0.000, 16:30:06.417, 1680381006417
102, 8314.24, -288.09, -291.47, 0.00, 0.000, 0.000, 0.000, 16:30:06.417, 1680381006417
103, 8858.18, 116.25, 52.61, 0.00, 0.000, 0.000, 0.000, 16:30:06.418, 1680381006418
104, 9390.26, 398.13, 342.89, 0.00, 0.000, 0.000, 0.000, 16:30:06.418, 1680381006418
105, 9373.96, -265.06, -240.53, 0.00, 0.000, 0.000, 0.000, 16:30:06.449, 1680381006449
106, 9495.51, -129.35, -157.35, 0.00, 0.000, 0.000, 0.000, 16:30:06.449, 1680381006449
107, 10437.99, 496.56, 425.85, 0.00, 0.000, 0.000, 0.000, 16:30:06.450, 1680381006450
108, 9626.50, -107.75, -72.52, 0.00, 0.000, 0.000, 0.000, 16:30:06.450, 1680381006450
109, 9299.65, -262.55, -230.65, 0.00, 0.000, 0.000, 0.000, 16:30:06.451, 1680381006451
110, 10180.55, 347.49, 313.27, 0.00, 0.000, 0.000, 0.000, 16:30:06.451, 1680381006451
111, 10016.99, 146.83, 164.77, 0.00, 0.000, 0.000, 0.000, 16:30:06.451, 1680381006451
112, 9244.94, -317.00, -276.87, 0.00, 0.000, 0.000, 0.000, 16:30:06.451, 1680381006451
113, 9793.72, 104.98, 55.52, 0.00, 0.000, 0.000, 0.000, 16:30:06.478, 1680381006478
114, 10343.62, 390.71, 355.50, 0.00, 0.000, 0.000, 0.000, 16:30:06.478, 1680381006478
115, 10332.54, -276.84, -265.01, 0.00, 0.000, 0.000, 0.000, 16:30:06.479, 1680381006479
116, 10450.68, -133.86, -189.69, 0.00, 0.000, 0.000, 0.000, 16:30:06.479, 1680381006479
117, 11395.63, 477.68, 370.52, 0.00, 0.000, 0.000, 0.000, 16:30:06.509, 1680381006509
118, 10591.19, -118.53, -159.14, 0.00, 0.000, 0.000, 0.000, 16:30:06.509, 1680381006509
119, 10271.21, -267.10, -319.90, 0.00, 0.000, 0.000, 0.000, 16:30:06.509, 1680381006509
120, 11164.38, 346.01, 234.70, 0.00, 0.000, 0.000, 0.000, 16:30:06.509, 1680381006509
121, 11000.19, 144.02, 113.12, 0.00, 0.000, 0.000, 0.000, 16:30:06.511, 1680381006511
122, 10241.29, -312.86, -288.99, 0.00, 0.000, 0.000, 0.000, 16:30:06.511, 1680381006511
123, 10794.42, 108.46, 44.46, 0.00, 0.000, 0.000, 0.000, 16:30:06.512, 1680381006512
124, 11333.87, 397.37, 358.65, 0.00, 0.000, 0.000, 0.000, 16:30:06.512, 1680381006512
125, 11304.75, -275.06, -237.81, 0.00, 0.000, 0.000, 0.000, 16:30:06.538, 1680381006538
126, 11441.38, -122.65, -139.58, 0.00, 0.000, 0.000, 0.000, 16:30:06.538, 1680381006538
127, 12385.50, 480.39, 421.16, 0.00, 0.000, 0.000, 0.000, 16:30:06.538, 1680381006538
128, 11572.01, -117.38, -111.24, 0.00, 0.000, 0.000, 0.000, 16:30:06.538, 1680381006538
129, 11257.70, -269.36, -279.37, 0.00, 0.000, 0.000, 0.000, 16:30:06.567, 1680381006567
130, 12152.06, 353.89, 250.56, 0.00, 0.000, 0.000, 0.000, 16:30:06.567, 1680381006567
131, 11967.67, 147.78, 90.43, 0.00, 0.000, 0.000, 0.000, 16:30:06.569, 1680381006569
132, 11210.98, -314.90, -331.33, 0.00, 0.000, 0.000, 0.000, 16:30:06.569, 1680381006569
133, 11768.49, 109.65, 15.22, 0.00, 0.000, 0.000, 0.000, 16:30:06.569, 1680381006569
134, 12306.99, 392.75, 318.49, 0.00, 0.000, 0.000, 0.000, 16:30:06.569, 1680381006569
135, 12286.91, -275.35, -268.21, 0.00, 0.000, 0.000, 0.000, 16:30:06.570, 1680381006570
136, 12421.13, -122.01, -159.61, 0.00, 0.000, 0.000, 0.000, 16:30:06.570, 1680381006570
137, 13365.03, 489.00, 424.53, 0.00, 0.000, 0.000, 0.000, 16:30:06.597, 1680381006597
138, 12573.50, -106.23, -92.21, 0.00, 0.000, 0.000, 0.000, 16:30:06.597, 1680381006597
139, 12263.42, -249.51, -251.68, 0.00, 0.000, 0.000, 0.000, 16:30:06.599, 1680381006599
140, 13151.42, 373.76, 285.03, 0.00, 0.000, 0.000, 0.000, 16:30:06.599, 1680381006599
141, 12964.01, 172.32, 110.59, 0.00, 0.000, 0.000, 0.000, 16:30:06.627, 1680381006627
142, 12201.25, -280.38, -327.64, 0.00, 0.000, 0.000, 0.000, 16:30:06.627, 1680381006627
143, 12738.28, 134.63, -8.99, 0.00, 0.000, 0.000, 0.000, 16:30:06.628, 1680381006628
144, 13257.17, 405.36, 288.26, 0.00, 0.000, 0.000, 0.000, 16:30:06.628, 1680381006628
145, 13228.08, -299.69, -298.58, 0.00, 0.000, 0.000, 0.000, 16:30:06.629, 1680381006629
146, 13368.23, -157.44, -184.10, 0.00, 0.000, 0.000, 0.000, 16:30:06.629, 1680381006629
147, 14328.21, 453.56, 403.24, 0.00, 0.000, 0.000, 0.000, 16:30:06.630, 1680381006630
148, 13544.12, -127.98, -94.17, 0.00, 0.000, 0.000, 0.000, 16:30:06.630, 1680381006630
149, 13243.89, -259.01, -241.15, 0.00, 0.000, 0.000, 0.000, 16:30:06.657, 1680381006657
150, 14120.01, 361.01, 300.44, 0.00, 0.000, 0.000, 0.000, 16:30:06.657, 1680381006657
151, 13939.67, 147.76, 136.86, 0.00, 0.000, 0.000, 0.000, 16:30:06.658, 1680381006658
152, 13184.10, -309.68, -296.38, 0.00, 0.000, 0.000, 0.000, 16:30:06.658, 1680381006658
153, 13732.45, 108.66, 29.18, 0.00, 0.000, 0.000, 0.000, 16:30:06.688, 1680381006688
154, 14269.23, 394.10, 327.82, 0.00, 0.000, 0.000, 0.000, 16:30:06.688, 1680381006688
155, 14248.25, -276.38, -267.55, 0.00, 0.000, 0.000, 0.000, 16:30:06.688, 1680381006688
156, 14390.76, -125.16, -169.31, 0.00, 0.000, 0.000, 0.000, 16:30:06.688, 1680381006688
157, 15336.63, 484.22, 408.41, 0.00, 0.000, 0.000, 0.000, 16:30:06.689, 1680381006689
158, 14521.58, -121.87, -95.72, 0.00, 0.000, 0.000, 0.000, 16:30:06.689, 1680381006689
159, 14195.23, -273.34, -264.22, 0.00, 0.000, 0.000, 0.000, 16:30:06.690, 1680381006690
160, 15082.43, 347.89, 295.09, 0.00, 0.000, 0.000, 0.000, 16:30:06.690, 1680381006690
161, 14904.06, 138.87, 135.95, 0.00, 0.000, 0.000, 0.000, 16:30:06.717, 1680381006717
162, 14163.37, -313.59, -298.87, 0.00, 0.000, 0.000, 0.000, 16:30:06.717, 1680381006717
163, 14716.67, 114.38, 27.50, 0.00, 0.000, 0.000, 0.000, 16:30:06.718, 1680381006718
164, 15238.92, 395.15, 307.92, 0.00, 0.000, 0.000, 0.000, 16:30:06.718, 1680381006718
165, 15233.44, -270.71, -276.41, 0.00, 0.000, 0.000, 0.000, 16:30:06.748, 1680381006748
166, 15370.98, -107.15, -141.52, 0.00, 0.000, 0.000, 0.000, 16:30:06.748, 1680381006748
167, 16305.97, 487.80, 462.00, 0.00, 0.000, 0.000, 0.000, 16:30:06.748, 1680381006748
168, 15495.18, -110.60, -17.90, 0.00, 0.000, 0.000, 0.000, 16:30:06.748, 1680381006748
169, 15180.89, -250.28, -153.00, 0.00, 0.000, 0.000, 0.000, 16:30:06.749, 1680381006749
170, 16054.92, 356.55, 368.35, 0.00, 0.000, 0.000, 0.000, 16:30:06.749, 1680381006749
171, 15879.82, 139.38, 184.15, 0.00, 0.000, 0.000, 0.000, 16:30:06.750, 1680381006750
172, 15136.21, -301.43, -271.30, 0.00, 0.000, 0.000, 0.000, 16:30:06.750, 1680381006750
173, 15695.12, 117.00, 20.23, 0.00, 0.000, 0.000, 0.000, 16:30:06.777, 1680381006777
174, 16211.18, 391.97, 279.53, 0.00, 0.000, 0.000, 0.000, 16:30:06.777, 1680381006777
175, 15237.19, -261.84, -309.01, 0.00, 0.000, 0.000, 0.000, 16:30:06.778, 1680381006778
176, 15373.03, -109.67, -198.19, 0.00, 0.000, 0.000, 0.000, 16:30:06.778, 1680381006778
177, 16314.54, 486.92, 401.35, 0.00, 0.000, 0.000, 0.000, 16:30:06.807, 1680381006807
178, 15501.91, -117.04, -95.11, 0.00, 0.000, 0.000, 0.000, 16:30:06.807, 1680381006807
179, 15192.68, -252.09, -240.25, 0.00, 0.000, 0.000, 0.000, 16:30:06.808, 1680381006808
180, 16081.48, 370.84, 303.72, 0.00, 0.000, 0.000, 0.000, 16:30:06.808, 1680381006808
181, 15896.38, 148.66, 163.39, 0.00, 0.000, 0.000, 0.000, 16:30:06.809, 1680381006809
182, 15134.87, -316.38, -263.34, 0.00, 0.000, 0.000, 0.000, 16:30:06.809, 1680381006809
183, 15689.90, 106.90, 68.80, 0.00, 0.000, 0.000, 0.000, 16:30:06.817, 1680381006817
184, 16212.38, 381.57, 357.14, 0.00, 0.000, 0.000, 0.000, 16:30:06.817, 1680381006817
185, 16206.65, -276.37, -246.49, 0.00, 0.000, 0.000, 0.000, 16:30:06.837, 1680381006837
186, 16348.47, -118.83, -147.99, 0.00, 0.000, 0.000, 0.000, 16:30:06.837, 1680381006837
187, 17274.09, 488.19, 405.41, 0.00, 0.000, 0.000, 0.000, 16:30:06.838, 1680381006838
188, 16453.64, -115.78, -119.40, 0.00, 0.000, 0.000, 0.000, 16:30:06.838, 1680381006838
189, 16144.95, -263.28, -282.74, 0.00, 0.000, 0.000, 0.000, 16:30:06.868, 1680381006868
190, 17039.03, 353.97, 262.87, 0.00, 0.000, 0.000, 0.000, 16:30:06.868, 1680381006868
191, 16850.24, 142.01, 124.13, 0.00, 0.000, 0.000, 0.000, 16:30:06.868, 1680381006868
192, 16120.62, -302.78, -271.63, 0.00, 0.000, 0.000, 0.000, 16:30:06.868, 1680381006868
193, 16678.06, 126.49, 79.93, 0.00, 0.000, 0.000, 0.000, 16:30:06.869, 1680381006869
194, 17195.43, 392.08, 368.57, 0.00, 0.000, 0.000, 0.000, 16:30:06.869, 1680381006869
195, 17185.74, -272.21, -223.28, 0.00, 0.000, 0.000, 0.000, 16:30:06.870, 1680381006870
196, 17329.78, -112.25, -121.86, 0.00, 0.000, 0.000, 0.000, 16:30:06.870, 1680381006870
197, 18269.51, 490.78, 436.82, 0.00, 0.000, 0.000, 0.000, 16:30:06.898, 1680381006898
198, 17459.43, -115.37, -91.16, 0.00, 0.000, 0.000, 0.000, 16:30:06.898, 1680381006898
199, 17155.96, -252.65, -247.15, 0.00, 0.000, 0.000, 0.000, 16:30:06.899, 1680381006899
200, 18045.04, 364.68, 284.68, 0.00, 0.000, 0.000, 0.000, 16:30:06.899, 1680381006899
0, 205.38, 134.78, 112.44, 0.00, 0.000, 0.000, 0.000, 16:30:06.899, 1680381006899
1, -525.72, -302.42, -296.05, 0.00, 0.000, 0.000, 0.000, 16:30:06.927, 1680381006927
2, 36.91, 125.99, 46.71, 0.00, 0.000, 0.000, 0.000, 16:30:06.927, 1680381006927
3, 543.84, 392.67, 337.91, 0.00, 0.000, 0.000, 0.000, 16:30:06.929, 1680381006929
4, 528.51, -272.03, -247.45, 0.00, 0.000, 0.000, 0.000, 16:30:06.929, 1680381006929
5, 661.93, -113.04, -139.69, 0.00, 0.000, 0.000, 0.000, 16:30:06.929, 1680381006929
6, 1597.16, 491.68, 428.72, 0.00, 0.000, 0.000, 0.000, 16:30:06.929, 1680381006929
7, 783.82, -116.57, -96.30, 0.00, 0.000, 0.000, 0.000, 16:30:06.958, 1680381006958
8, 479.01, -254.57, -246.95, 0.00, 0.000, 0.000, 0.000, 16:30:06.958, 1680381006958
9, 1366.74, 363.57, 280.36, 0.00, 0.000, 0.000, 0.000, 16:30:06.958, 1680381006958
10, 1146.75, 118.94, 89.67, 0.00, 0.000, 0.000, 0.000, 16:30:06.958, 1680381006958
11, 416.54, -312.58, -316.43, 0.00, 0.000, 0.000, 0.000, 16:30:06.960, 1680381006960
12, 992.73, 114.48, 24.13, 0.00, 0.000, 0.000, 0.000, 16:30:06.960, 1680381006960
13, 1503.63, 385.56, 313.82, 0.00, 0.000, 0.000, 0.000, 16:30:06.987, 1680381006987
14, 1497.45, -273.48, -285.87, 0.00, 0.000, 0.000, 0.000, 16:30:06.987, 1680381006987
15, 1651.70, -108.27, -164.87, 0.00, 0.000, 0.000, 0.000, 16:30:06.988, 1680381006988
16, 2584.70, 485.46, 414.10, 0.00, 0.000, 0.000, 0.000, 16:30:06.988, 1680381006988
17, 1760.74, -118.70, -97.98, 0.00, 0.000, 0.000, 0.000, 16:30:06.989, 1680381006989
18, 1459.28, -255.81, -244.56, 0.00, 0.000, 0.000, 0.000, 16:30:06.989, 1680381006989
19, 2357.35, 369.08, 295.17, 0.00, 0.000, 0.000, 0.000, 16:30:07.017, 1680381007017
20, 2149.08, 133.98, 112.01, 0.00, 0.000, 0.000, 0.000, 16:30:07.017, 1680381007017
21, 1409.28, -309.97, -323.92, 0.00, 0.000, 0.000, 0.000, 16:30:07.018, 1680381007018
22, 1987.47, 127.98, 21.90, 0.00, 0.000, 0.000, 0.000, 16:30:07.018, 1680381007018
23, 2496.55, 392.90, 305.80, 0.00, 0.000, 0.000, 0.000, 16:30:07.019, 1680381007019
24, 2478.60, -278.23, -292.05, 0.00, 0.000, 0.000, 0.000, 16:30:07.019, 1680381007019
25, 2626.81, -114.18, -185.53, 0.00, 0.000, 0.000, 0.000, 16:30:07.048, 1680381007048
26, 3570.48, 495.37, 371.44, 0.00, 0.000, 0.000, 0.000, 16:30:07.048, 1680381007048
27, 2740.07, -121.37, -154.93, 0.00, 0.000, 0.000, 0.000, 16:30:07.049, 1680381007049
28, 2446.77, -252.17, -288.95, 0.00, 0.000, 0.000, 0.000, 16:30:07.049, 1680381007049
29, 3342.40, 366.50, 285.36, 0.00, 0.000, 0.000, 0.000, 16:30:07.050, 1680381007050
30, 3127.54, 134.36, 133.25, 0.00, 0.000, 0.000, 0.000, 16:30:07.050, 1680381007050
31, 2397.62, -308.18, -270.26, 0.00, 0.000, 0.000, 0.000, 16:30:07.078, 1680381007078
32, 2969.37, 127.58, 89.81, 0.00, 0.000, 0.000, 0.000, 16:30:07.078, 1680381007078
33, 3469.85, 389.80, 373.04, 0.00, 0.000, 0.000, 0.000, 16:30:07.080, 1680381007080
34, 3463.85, -270.81, -230.73, 0.00, 0.000, 0.000, 0.000, 16:30:07.080, 1680381007080
35, 3608.05, -110.93, -133.50, 0.00, 0.000, 0.000, 0.000, 16:30:07.080, 1680381007080
36, 4537.64, 488.17, 422.27, 0.00, 0.000, 0.000, 0.000, 16:30:07.080, 1680381007080
37, 3707.10, -125.20, -115.07, 0.00, 0.000, 0.000, 0.000, 16:30:07.107, 1680381007107
38, 3418.68, -257.89, -261.42, 0.00, 0.000, 0.000, 0.000, 16:30:07.107, 1680381007107
39, 4314.88, 369.89, 287.14, 0.00, 0.000, 0.000, 0.000, 16:30:07.108, 1680381007108
40, 4096.81, 127.84, 121.21, 0.00, 0.000, 0.000, 0.000, 16:30:07.108, 1680381007108
41, 3365.18, -306.25, -292.37, 0.00, 0.000, 0.000, 0.000, 16:30:07.109, 1680381007109
42, 3943.24, 127.90, 68.17, 0.00, 0.000, 0.000, 0.000, 16:30:07.109, 1680381007109
43, 4450.11, 389.73, 352.23, 0.00, 0.000, 0.000, 0.000, 16:30:07.137, 1680381007137
44, 4435.60, -278.08, -233.47, 0.00, 0.000, 0.000, 0.000, 16:30:07.137, 1680381007137
45, 4599.52, -103.98, -116.75, 0.00, 0.000, 0.000, 0.000, 16:30:07.138, 1680381007138
46, 5539.21, 489.35, 460.54, 0.00, 0.000, 0.000, 0.000, 16:30:07.138, 1680381007138
47, 4712.41, -113.99, -69.63, 0.00, 0.000, 0.000, 0.000, 16:30:07.139, 1680381007139
48, 4419.26, -246.36, -205.16, 0.00, 0.000, 0.000, 0.000, 16:30:07.139, 1680381007139
49, 5312.43, 371.26, 339.63, 0.00, 0.000, 0.000, 0.000, 16:30:07.168, 1680381007168
50, 5088.23, 119.67, 151.79, 0.00, 0.000, 0.000, 0.000, 16:30:07.168, 1680381007168
51, 4353.73, -312.43, -259.54, 0.00, 0.000, 0.000, 0.000, 16:30:07.169, 1680381007169
52, 4927.10, 127.90, 81.63, 0.00, 0.000, 0.000, 0.000, 16:30:07.169, 1680381007169
53, 5427.03, 361.99, 339.87, 0.00, 0.000, 0.000, 0.000, 16:30:07.169, 1680381007169
54, 5413.17, -282.34, -233.76, 0.00, 0.000, 0.000, 0.000, 16:30:07.169, 1680381007169
55, 5547.09, -121.83, -146.44, 0.00, 0.000, 0.000, 0.000, 16:30:07.198, 1680381007198
56, 6468.13, 469.64, 420.49, 0.00, 0.000, 0.000, 0.000, 16:30:07.198, 1680381007198
57, 5650.15, -140.60, -103.21, 0.00, 0.000, 0.000, 0.000, 16:30:07.199, 1680381007199
58, 5363.81, -259.06, -230.79, 0.00, 0.000, 0.000, 0.000, 16:30:07.199, 1680381007199
59, 6245.68, 354.94, 327.60, 0.00, 0.000, 0.000, 0.000, 16:30:07.199, 1680381007199
60, 6033.62, 123.97, 156.41, 0.00, 0.000, 0.000, 0.000, 16:30:07.199, 1680381007199
61, 5302.38, -322.36, -240.91, 0.00, 0.000, 0.000, 0.000, 16:30:07.227, 1680381007227
62, 5875.95, 115.45, 128.53, 0.00, 0.000, 0.000, 0.000, 16:30:07.227, 1680381007227
63, 6372.60, 372.56, 403.66, 0.00, 0.000, 0.000, 0.000, 16:30:07.228, 1680381007228
64, 6347.30, -284.49, -213.82, 0.00, 0.000, 0.000, 0.000, 16:30:07.228, 1680381007228
65, 6523.98, -125.72, -96.84, 0.00, 0.000, 0.000, 0.000, 16:30:07.229, 1680381007229
66, 7434.84, 466.59, 437.80, 0.00, 0.000, 0.000, 0.000, 16:30:07.229, 1680381007229
67, 6630.30, -139.32, -81.66, 0.00, 0.000, 0.000, 0.000, 16:30:07.257, 1680381007257
68, 6343.83, -262.07, -245.23, 0.00, 0.000, 0.000, 0.000, 16:30:07.257, 1680381007257
69, 7252.44, 358.58, 303.90, 0.00, 0.000, 0.000, 0.000, 16:30:07.258, 1680381007258
70, 7007.63, 106.90, 110.59, 0.00, 0.000, 0.000, 0.000, 16:30:07.258, 1680381007258
71, 6299.05, -309.97, -292.48, 0.00, 0.000, 0.000, 0.000, 16:30:07.259, 1680381007259
72, 6879.27, 123.72, 66.98, 0.00, 0.000, 0.000, 0.000, 16:30:07.259, 1680381007259
73, 7383.87, 375.68, 338.84, 0.00, 0.000, 0.000, 0.000, 16:30:07.287, 1680381007287
74, 6418.14, -273.90, -251.64, 0.00, 0.000, 0.000, 0.000, 16:30:07.287, 1680381007287
75, 6568.44, -110.41, -152.45, 0.00, 0.000, 0.000, 0.000, 16:30:07.288, 1680381007288
76, 7504.72, 491.21, 420.75, 0.00, 0.000, 0.000, 0.000, 16:30:07.288, 1680381007288
77, 6683.71, -124.30, -108.20, 0.00, 0.000, 0.000, 0.000, 16:30:07.289, 1680381007289
78, 6406.68, -237.23, -237.76, 0.00, 0.000, 0.000, 0.000, 16:30:07.289, 1680381007289
79, 7319.01, 379.77, 332.87, 0.00, 0.000, 0.000, 0.000, 16:30:07.318, 1680381007318
80, 7076.07, 131.80, 168.67, 0.00, 0.000, 0.000, 0.000, 16:30:07.318, 1680381007318
81, 6374.25, -290.37, -229.68, 0.00, 0.000, 0.000, 0.000, 16:30:07.318, 1680381007318
82, 6975.62, 159.21, 139.03, 0.00, 0.000, 0.000, 0.000, 16:30:07.318, 1680381007318
83, 7440.51, 391.52, 387.91, 0.00, 0.000, 0.000, 0.000, 16:30:07.319, 1680381007319
84, 7417.69, -264.84, -213.69, 0.00, 0.000, 0.000, 0.000, 16:30:07.319, 1680381007319
85, 7583.91, -89.75, -99.69, 0.00, 0.000, 0.000, 0.000, 16:30:07.347, 1680381007347
86, 8506.46, 497.12, 430.79, 0.00, 0.000, 0.000, 0.000, 16:30:07.347, 1680381007347
87, 7678.96, -121.67, -91.39, 0.00, 0.000, 0.000, 0.000, 16:30:07.348, 1680381007348
88, 7383.72, -243.20, -255.00, 0.00, 0.000, 0.000, 0.000, 16:30:07.348, 1680381007348
89, 8286.21, 387.78, 306.52, 0.00, 0.000, 0.000, 0.000, 16:30:07.349, 1680381007349
90, 8048.74, 144.22, 120.09, 0.00, 0.000, 0.000, 0.000, 16:30:07.349, 1680381007349
91, 7325.94, -294.06, -283.05, 0.00, 0.000, 0.000, 0.000, 16:30:07.377, 1680381007377
92, 7896.36, 135.49, 61.48, 0.00, 0.000, 0.000, 0.000, 16:30:07.377, 1680381007377
93, 8387.75, 383.52, 347.29, 0.00, 0.000, 0.000, 0.000, 16:30:07.379, 1680381007379
94, 8378.04, -276.42, -225.13, 0.00, 0.000, 0.000, 0.000, 16:30:07.379, 1680381007379
95, 8557.33, -89.22, -98.62, 0.00, 0.000, 0.000, 0.000, 16:30:07.380, 1680381007380
96, 9479.57, 500.11, 456.64, 0.00, 0.000, 0.000, 0.000, 16:30:07.380, 1680381007380
97, 8632.95, -114.69, -90.00, 0.00, 0.000, 0.000, 0.000, 16:30:07.408, 1680381007408
98, 8354.32, -226.30, -257.84, 0.00, 0.000, 0.000, 0.000, 16:30:07.408, 1680381007408
99, 9234.10, 400.01, 262.69, 0.00, 0.000, 0.000, 0.000, 16:30:07.408, 1680381007408
100, 8984.36, 144.24, 51.21, 0.00, 0.000, 0.000, 0.000, 16:30:07.408, 1680381007408
101, 8262.41, -311.86, -361.20, 0.00, 0.000, 0.000, 0.000, 16:30:07.409, 1680381007409
102, 8845.90, 100.27, -17.50, 0.00, 0.000, 0.000, 0.000, 16:30:07.409, 1680381007409
103, 9338.16, 343.60, 254.29, 0.00, 0.000, 0.000, 0.000, 16:30:07.438, 1680381007438
104, 8370.73, -302.23, -315.09, 0.00, 0.000, 0.000, 0.000, 16:30:07.438, 1680381007438
105, 8557.50, -106.39, -177.00, 0.00, 0.000, 0.000, 0.000, 16:30:07.439, 1680381007439
106, 9492.24, 492.55, 401.41, 0.00, 0.000, 0.000, 0.000, 16:30:07.439, 1680381007439
107, 8634.65, -132.31, -127.17, 0.00, 0.000, 0.000, 0.000, 16:30:07.439, 1680381007439
108, 8343.08, -258.43, -269.85, 0.00, 0.000, 0.000, 0.000, 16:30:07.439, 1680381007439
109, 9231.42, 364.40, 281.82, 0.00, 0.000, 0.000, 0.000, 16:30:07.467, 1680381007467
110, 8973.75, 105.61, 98.90, 0.00, 0.000, 0.000, 0.000, 16:30:07.467, 1680381007467
111, 8271.67, -313.54, -289.03, 0.00, 0.000, 0.000, 0.000, 16:30:07.468, 1680381007468
112, 8857.81, 122.16, 69.07, 0.00, 0.000, 0.000, 0.000, 16:30:07.468, 1680381007468
113, 9336.82, 368.14, 325.05, 0.00, 0.000, 0.000, 0.000, 16:30:07.469, 1680381007469
114, 9326.61, -292.57, -272.02, 0.00, 0.000, 0.000, 0.000, 16:30:07.469, 1680381007469
115, 9489.91, -116.26, -164.95, 0.00, 0.000, 0.000, 0.000, 16:30:07.497, 1680381007497
116, 10417.58, 478.60, 385.51, 0.00, 0.000, 0.000, 0.000, 16:30:07.497, 1680381007497
117, 9584.42, -140.42, -158.42, 0.00, 0.000, 0.000, 0.000, 16:30:07.498, 1680381007498
118, 9312.36, -254.57, -306.62, 0.00, 0.000, 0.000, 0.000, 16:30:07.498, 1680381007498
119, 10220.38, 375.58, 234.79, 0.00, 0.000, 0.000, 0.000, 16:30:07.499, 1680381007499
120, 9972.68, 111.47, 39.73, 0.00, 0.000, 0.000, 0.000, 16:30:07.499, 1680381007499
121, 9261.30, -310.37, -349.99, 0.00, 0.000, 0.000, 0.000, 16:30:07.527, 1680381007527
122, 9858.00, 138.93, 47.37, 0.00, 0.000, 0.000, 0.000, 16:30:07.527, 1680381007527
123, 10319.06, 371.25, 343.25, 0.00, 0.000, 0.000, 0.000, 16:30:07.528, 1680381007528
124, 9343.33, -276.50, -189.04, 0.00, 0.000, 0.000, 0.000, 16:30:07.528, 1680381007528
125, 9497.48, -105.94, -51.83, 0.00, 0.000, 0.000, 0.000, 16:30:07.529, 1680381007529
126, 10412.77, 484.07, 500.87, 0.00, 0.000, 0.000, 0.000, 16:30:07.529, 1680381007529
127, 9558.91, -145.85, -77.05, 0.00, 0.000, 0.000, 0.000, 16:30:07.558, 1680381007558
128, 9295.11, -257.74, -254.66, 0.00, 0.000, 0.000, 0.000, 16:30:07.558, 1680381007558
129, 10197.99, 367.35, 250.16, 0.00, 0.000, 0.000, 0.000, 16:30:07.559, 1680381007559
130, 9941.25, 101.19, 15.97, 0.00, 0.000, 0.000, 0.000, 16:30:07.559, 1680381007559
131, 9244.23, -313.44, -383.04, 0.00, 0.000, 0.000, 0.000, 16:30:07.565, 1680381007565
132, 9841.25, 138.25, -2.64, 0.00, 0.000, 0.000, 0.000, 16:30:07.565, 1680381007565
133, 10309.97, 375.53, 280.81, 0.00, 0.000, 0.000, 0.000, 16:30:07.588, 1680381007588
134, 10306.72, -282.57, -281.91, 0.00, 0.000, 0.000, 0.000, 16:30:07.588, 1680381007588
135, 10492.79, -95.73, -131.30, 0.00, 0.000, 0.000, 0.000, 16:30:07.588, 1680381007588
136, 11413.25, 487.30, 427.73, 0.00, 0.000, 0.000, 0.000, 16:30:07.588, 1680381007588
137, 10568.45, -138.93, -102.98, 0.00, 0.000, 0.000, 0.000, 16:30:07.589, 1680381007589
138, 10293.73, -245.97, -232.59, 0.00, 0.000, 0.000, 0.000, 16:30:07.589, 1680381007589
139, 11195.99, 378.01, 324.28, 0.00, 0.000, 0.000, 0.000, 16:30:07.618, 1680381007618
140, 10928.44, 105.61, 123.46, 0.00, 0.000, 0.000, 0.000, 16:30:07.618, 1680381007618
141, 10236.41, -308.42, -268.40, 0.00, 0.000, 0.000, 0.000, 16:30:07.618, 1680381007618
142, 10827.16, 139.43, 81.20, 0.00, 0.000, 0.000, 0.000, 16:30:07.618, 1680381007618
143, 11288.17, 376.64, 333.03, 0.00, 0.000, 0.000, 0.000, 16:30:07.619, 1680381007619
144, 11284.00, -279.20, -261.48, 0.00, 0.000, 0.000, 0.000, 16:30:07.619, 1680381007619
145, 11471.32, -85.68, -146.53, 0.00, 0.000, 0.000, 0.000, 16:30:07.648, 1680381007648
146, 12395.07, 495.13, 411.19, 0.00, 0.000, 0.000, 0.000, 16:30:07.648, 1680381007648
147, 11545.23, -126.06, -132.19, 0.00, 0.000, 0.000, 0.000, 16:30:07.648, 1680381007648
148, 11279.43, -238.55, -246.72, 0.00, 0.000, 0.000, 0.000, 16:30:07.648, 1680381007648
149, 12187.20, 382.20, 320.49, 0.00, 0.000, 0.000, 0.000, 16:30:07.649, 1680381007649
150, 11921.44, 119.29, 126.19, 0.00, 0.000, 0.000, 0.000, 16:30:07.649, 1680381007649
151, 11222.95, -303.77, -266.30, 0.00, 0.000, 0.000, 0.000, 16:30:07.677, 1680381007677
152, 11821.50, 147.22, 109.01, 0.00, 0.000, 0.000, 0.000, 16:30:07.677, 1680381007677
153, 12278.91, 379.38, 349.10, 0.00, 0.000, 0.000, 0.000, 16:30:07.678, 1680381007678
154, 12278.62, -275.39, -239.05, 0.00, 0.000, 0.000, 0.000, 16:30:07.678, 1680381007678
155, 12454.90, -99.21, -118.73, 0.00, 0.000, 0.000, 0.000, 16:30:07.679, 1680381007679
156, 13371.19, 481.30, 427.20, 0.00, 0.000, 0.000, 0.000, 16:30:07.679, 1680381007679
157, 12518.47, -142.63, -130.27, 0.00, 0.000, 0.000, 0.000, 16:30:07.707, 1680381007707
158, 12267.50, -244.55, -252.28, 0.00, 0.000, 0.000, 0.000, 16:30:07.707, 1680381007707
159, 13177.95, 385.02, 306.97, 0.00, 0.000, 0.000, 0.000, 16:30:07.708, 1680381007708
160, 12901.30, 107.03, 102.29, 0.00, 0.000, 0.000, 0.000, 16:30:07.708, 1680381007708
161, 12199.53, -306.16, -279.39, 0.00, 0.000, 0.000, 0.000, 16:30:07.709, 1680381007709
162, 12790.49, 142.39, 79.29, 0.00, 0.000, 0.000, 0.000, 16:30:07.709, 1680381007709
163, 13240.87, 360.26, 327.83, 0.00, 0.000, 0.000, 0.000, 16:30:07.737, 1680381007737
164, 12267.49, -288.07, -251.69, 0.00, 0.000, 0.000, 0.000, 16:30:07.737, 1680381007737
165, 12436.26, -108.65, -144.18, 0.00, 0.000, 0.000, 0.000, 16:30:07.738, 1680381007738
166, 13354.16, 477.20, 402.19, 0.00, 0.000, 0.000, 0.000, 16:30:07.738, 1680381007738
167, 12491.03, -152.13, -148.15, 0.00, 0.000, 0.000, 0.000, 16:30:07.739, 1680381007739
168, 12240.41, -249.22, -280.41, 0.00, 0.000, 0.000, 0.000, 16:30:07.739, 1680381007739
169, 13155.59, 380.29, 271.01, 0.00, 0.000, 0.000, 0.000, 16:30:07.768, 1680381007768
170, 12885.95, 104.33, 62.67, 0.00, 0.000, 0.000, 0.000, 16:30:07.768, 1680381007768
171, 12199.69, -308.21, -325.29, 0.00, 0.000, 0.000, 0.000, 16:30:07.769, 1680381007769
172, 12805.03, 145.49, 52.80, 0.00, 0.000, 0.000, 0.000, 16:30:07.769, 1680381007769
173, 13258.00, 368.14, 307.98, 0.00, 0.000, 0.000, 0.000, 16:30:07.770, 1680381007770
174, 12279.33, -285.78, -256.37, 0.00, 0.000, 0.000, 0.000, 16:30:07.770, 1680381007770
175, 12461.58, -96.56, -122.38, 0.00, 0.000, 0.000, 0.000, 16:30:07.798, 1680381007798
176, 13373.95, 483.88, 439.06, 0.00, 0.000, 0.000, 0.000, 16:30:07.798, 1680381007798
177, 12509.78, -147.91, -122.55, 0.00, 0.000, 0.000, 0.000, 16:30:07.798, 1680381007798
178, 12260.39, -245.25, -251.60, 0.00, 0.000, 0.000, 0.000, 16:30:07.798, 1680381007798
179, 13170.09, 385.30, 298.84, 0.00, 0.000, 0.000, 0.000, 16:30:07.799, 1680381007799
180, 12894.41, 108.30, 87.94, 0.00, 0.000, 0.000, 0.000, 16:30:07.799, 1680381007799
181, 12198.64, -306.28, -304.04, 0.00, 0.000, 0.000, 0.000, 16:30:07.828, 1680381007828
182, 12804.56, 148.17, 58.24, 0.00, 0.000, 0.000, 0.000, 16:30:07.828, 1680381007828
183, 13241.48, 366.60, 300.09, 0.00, 0.000, 0.000, 0.000, 16:30:07.828, 1680381007828
184, 12263.24, -282.34, -285.21, 0.00, 0.000, 0.000, 0.000, 16:30:07.828, 1680381007828
185, 12450.96, -100.23, -162.56, 0.00, 0.000, 0.000, 0.000, 16:30:07.829, 1680381007829
186, 13365.56, 483.19, 401.96, 0.00, 0.000, 0.000, 0.000, 16:30:07.829, 1680381007829
187, 12508.12, -140.36, -127.59, 0.00, 0.000, 0.000, 0.000, 16:30:07.858, 1680381007858
188, 12249.22, -252.69, -243.03, 0.00, 0.000, 0.000, 0.000, 16:30:07.858, 1680381007858
189, 13166.05, 377.27, 320.70, 0.00, 0.000, 0.000, 0.000, 16:30:07.858, 1680381007858
190, 12890.88, 104.66, 117.81, 0.00, 0.000, 0.000, 0.000, 16:30:07.858, 1680381007858
191, 12192.24, -310.02, -269.20, 0.00, 0.000, 0.000, 0.000, 16:30:07.859, 1680381007859
192, 12793.77, 143.83, 94.18, 0.00, 0.000, 0.000, 0.000, 16:30:07.859, 1680381007859
193, 13233.76, 355.66, 328.00, 0.00, 0.000, 0.000, 0.000, 16:30:07.887, 1680381007887
194, 12262.20, -290.63, -265.98, 0.00, 0.000, 0.000, 0.000, 16:30:07.887, 1680381007887
195, 12453.84, -98.16, -132.78, 0.00, 0.000, 0.000, 0.000, 16:30:07.888, 1680381007888
196, 13364.70, 487.84, 421.21, 0.00, 0.000, 0.000, 0.000, 16:30:07.888, 1680381007888
197, 12494.61, -146.04, -126.12, 0.00, 0.000, 0.000, 0.000, 16:30:07.889, 1680381007889
198, 12246.84, -246.47, -241.49, 0.00, 0.000, 0.000, 0.000, 16:30:07.889, 1680381007889
199, 13148.90, 381.22, 311.03, 0.00, 0.000, 0.000, 0.000, 16:30:07.918, 1680381007918
200, 12869.00, 98.03, 99.10, 0.00, 0.000, 0.000, 0.000, 16:30:07.918, 1680381007918
0, -561.40, -301.00, -277.97, 0.00, 0.000, 0.000, 0.000, 16:30:07.918, 1680381007918
1, 52.80, 159.50, 104.46, 0.00, 0.000, 0.000, 0.000, 16:30:07.919, 1680381007919
2, 496.07, 363.57, 344.21, 0.00, 0.000, 0.000, 0.000, 16:30:07.920, 1680381007920
3, 490.31, -284.28, -240.77, 0.00, 0.000, 0.000, 0.000, 16:30:07.921, 1680381007921
4, 681.97, -99.00, -112.48, 0.00, 0.000, 0.000, 0.000, 16:30:07.921, 1680381007921
5, 1595.62, 485.26, 436.47, 0.00, 0.000, 0.000, 0.000, 16:30:07.947, 1680381007947
6, 736.45, -145.95, -116.89, 0.00, 0.000, 0.000, 0.000, 16:30:07.947, 1680381007947
7, 485.70, -248.06, -237.28, 0.00, 0.000, 0.000, 0.000, 16:30:07.948, 1680381007948
8, 1400.15, 383.18, 320.64, 0.00, 0.000, 0.000, 0.000, 16:30:07.948, 1680381007948
9, 1110.07, 99.95, 109.84, 0.00, 0.000, 0.000, 0.000, 16:30:07.977, 1680381007977
10, 438.11, -305.27, -269.67, 0.00, 0.000, 0.000, 0.000, 16:30:07.977, 1680381007977
11, 1045.03, 158.10, 102.30, 0.00, 0.000, 0.000, 0.000, 16:30:07.979, 1680381007979
12, 1471.90, 365.68, 343.10, 0.00, 0.000, 0.000, 0.000, 16:30:07.979, 1680381007979
13, 499.74, -273.56, -243.89, 0.00, 0.000, 0.000, 0.000, 16:30:07.980, 1680381007980
14, 701.13, -80.57, -108.80, 0.00, 0.000, 0.000, 0.000, 16:30:07.980, 1680381007980
15, 1600.57, 483.91, 437.51, 0.00, 0.000, 0.000, 0.000, 16:30:07.980, 1680381007980
16, 732.67, -142.69, -111.82, 0.00, 0.000, 0.000, 0.000, 16:30:07.980, 1680381007980
17, 485.67, -240.60, -234.55, 0.00, 0.000, 0.000, 0.000, 16:30:08.007, 1680381008007
18, 1412.50, 394.64, 327.06, 0.00, 0.000, 0.000, 0.000, 16:30:08.007, 1680381008007
19, 1107.12, 103.28, 97.21, 0.00, 0.000, 0.000, 0.000, 16:30:08.008, 1680381008008
20, 409.59, -311.80, -291.72, 0.00, 0.000, 0.000, 0.000, 16:30:08.008, 1680381008008
21, 1027.90, 144.73, 91.09, 0.00, 0.000, 0.000, 0.000, 16:30:08.037, 1680381008037
22, 1452.42, 351.42, 323.47, 0.00, 0.000, 0.000, 0.000, 16:30:08.037, 1680381008037
23, 480.49, -286.21, -263.55, 0.00, 0.000, 0.000, 0.000, 16:30:08.038, 1680381008038
24, 691.38, -84.26, -121.80, 0.00, 0.000, 0.000, 0.000, 16:30:08.038, 1680381008038
25, 1596.20, 485.61, 422.58, 0.00, 0.000, 0.000, 0.000, 16:30:08.039, 1680381008039
26, 719.15, -153.86, -137.69, 0.00, 0.000, 0.000, 0.000, 16:30:08.039, 1680381008039
27, 488.05, -245.00, -247.62, 0.00, 0.000, 0.000, 0.000, 16:30:08.040, 1680381008040
28, 1399.74, 393.93, 311.64, 0.00, 0.000, 0.000, 0.000, 16:30:08.040, 1680381008040
29, 1110.77, 108.69, 93.52, 0.00, 0.000, 0.000, 0.000, 16:30:08.068, 1680381008068
30, 434.98, -291.67, -281.22, 0.00, 0.000, 0.000, 0.000, 16:30:08.068, 1680381008068
31, 1046.51, 154.12, 101.75, 0.00, 0.000, 0.000, 0.000, 16:30:08.069, 1680381008069
32, 1463.69, 354.69, 317.94, 0.00, 0.000, 0.000, 0.000, 16:30:08.069, 1680381008069
33, 492.24, -282.93, -251.41, 0.00, 0.000, 0.000, 0.000, 16:30:08.097, 1680381008097
34, 702.14, -75.90, -106.97, 0.00, 0.000, 0.000, 0.000, 16:30:08.097, 1680381008097
35, 1599.94, 488.56, 427.32, 0.00, 0.000, 0.000, 0.000, 16:30:08.098, 1680381008098
36, 730.60, -143.11, -126.51, 0.00, 0.000, 0.000, 0.000, 16:30:08.098, 1680381008098
37, 503.98, -227.89, -236.40, 0.00, 0.000, 0.000, 0.000, 16:30:08.099, 1680381008099
38, 1422.19, 399.04, 320.28, 0.00, 0.000, 0.000, 0.000, 16:30:08.099, 1680381008099
39, 1118.33, 104.00, 98.80, 0.00, 0.000, 0.000, 0.000, 16:30:08.100, 1680381008100
40, 440.68, -294.41, -291.88, 0.00, 0.000, 0.000, 0.000, 16:30:08.100, 1680381008100
41, 1047.53, 154.04, 92.72, 0.00, 0.000, 0.000, 0.000, 16:30:08.127, 1680381008127
42, 1481.61, 370.30, 331.07, 0.00, 0.000, 0.000, 0.000, 16:30:08.127, 1680381008127
43, 503.29, -277.11, -255.41, 0.00, 0.000, 0.000, 0.000, 16:30:08.128, 1680381008128
44, 704.70, -79.02, -122.10, 0.00, 0.000, 0.000, 0.000, 16:30:08.128, 1680381008128
45, 1610.07, 490.14, 410.70, 0.00, 0.000, 0.000, 0.000, 16:30:08.157, 1680381008157
46, 742.84, -146.28, -130.34, 0.00, 0.000, 0.000, 0.000, 16:30:08.157, 1680381008157
47, 500.07, -241.41, -251.71, 0.00, 0.000, 0.000, 0.000, 16:30:08.158, 1680381008158
48, 1416.12, 388.43, 312.55, 0.00, 0.000, 0.000, 0.000, 16:30:08.158, 1680381008158
49, 1126.15, 106.71, 100.80, 0.00, 0.000, 0.000, 0.000, 16:30:08.159, 1680381008159
50, 458.18, -295.56, -269.16, 0.00, 0.000, 0.000, 0.000, 16:30:08.159, 1680381008159
51, 1081.38, 169.89, 105.38, 0.00, 0.000, 0.000, 0.000, 16:30:08.160, 1680381008160
52, 1488.19, 369.80, 318.53, 0.00, 0.000, 0.000, 0.000, 16:30:08.160, 1680381008160
53, 509.90, -261.27, -272.76, 0.00, 0.000, 0.000, 0.000, 16:30:08.187, 1680381008187
54, 711.06, -44.97, -151.78, 0.00, 0.000, 0.000, 0.000, 16:30:08.187, 1680381008187
55, 1613.19, 524.48, 390.00, 0.00, 0.000, 0.000, 0.000, 16:30:08.188, 1680381008188
56, 709.55, -152.31, -172.58, 0.00, 0.000, 0.000, 0.000, 16:30:08.188, 1680381008188
57, 474.11, -276.34, -264.97, 0.00, 0.000, 0.000, 0.000, 16:30:08.218, 1680381008218
58, 1407.21, 353.56, 317.35, 0.00, 0.000, 0.000, 0.000, 16:30:08.218, 1680381008218
59, 1117.97, 83.19, 119.53, 0.00, 0.000, 0.000, 0.000, 16:30:08.218, 1680381008218
60, 479.90, -302.09, -233.91, 0.00, 0.000, 0.000, 0.000, 16:30:08.218, 1680381008218
61, 1091.50, 167.55, 153.90, 0.00, 0.000, 0.000, 0.000, 16:30:08.219, 1680381008219
62, 1496.19, 358.81, 369.12, 0.00, 0.000, 0.000, 0.000, 16:30:08.219, 1680381008219
63, 539.77, -278.34, -212.48, 0.00, 0.000, 0.000, 0.000, 16:30:08.220, 1680381008220
64, 733.37, -71.27, -88.05, 0.00, 0.000, 0.000, 0.000, 16:30:08.220, 1680381008220
65, 1619.57, 487.37, 444.16, 0.00, 0.000, 0.000, 0.000, 16:30:08.247, 1680381008247
66, 733.94, -154.99, -112.65, 0.00, 0.000, 0.000, 0.000, 16:30:08.247, 1680381008247
67, 479.96, -244.84, -237.04, 0.00, 0.000, 0.000, 0.000, 16:30:08.248, 1680381008248
68, 1440.67, 389.08, 341.47, 0.00, 0.000, 0.000, 0.000, 16:30:08.248, 1680381008248
69, 1097.22, 93.17, 102.89, 0.00, 0.000, 0.000, 0.000, 16:30:08.278, 1680381008278
70, 435.33, -304.17, -255.00, 0.00, 0.000, 0.000, 0.000, 16:30:08.278, 1680381008278
71, 1041.13, 155.16, 137.54, 0.00, 0.000, 0.000, 0.000, 16:30:08.278, 1680381008278
72, 1486.31, 347.51, 358.07, 0.00, 0.000, 0.000, 0.000, 16:30:08.278, 1680381008278
73, 1464.66, -293.68, -234.30, 0.00, 0.000, 0.000, 0.000, 16:30:08.279, 1680381008279
74, 1661.05, -95.42, -102.76, 0.00, 0.000, 0.000, 0.000, 16:30:08.279, 1680381008279
75, 2562.32, 467.47, 430.81, 0.00, 0.000, 0.000, 0.000, 16:30:08.280, 1680381008280
76, 1689.82, -166.77, -148.75, 0.00, 0.000, 0.000, 0.000, 16:30:08.280, 1680381008280
77, 1464.11, -246.15, -241.06, 0.00, 0.000, 0.000, 0.000, 16:30:08.307, 1680381008307
78, 2398.03, 390.88, 340.07, 0.00, 0.000, 0.000, 0.000, 16:30:08.307, 1680381008307
79, 2083.05, 85.90, 140.81, 0.00, 0.000, 0.000, 0.000, 16:30:08.308, 1680381008308
80, 1408.25, -305.57, -220.42, 0.00, 0.000, 0.000, 0.000, 16:30:08.308, 1680381008308
81, 2036.38, 148.60, 158.32, 0.00, 0.000, 0.000, 0.000, 16:30:08.337, 1680381008337
82, 2454.80, 338.98, 358.50, 0.00, 0.000, 0.000, 0.000, 16:30:08.337, 1680381008337
83, 2441.67, -294.73, -270.91, 0.00, 0.000, 0.000, 0.000, 16:30:08.338, 1680381008338
84, 2666.60, -83.01, -154.57, 0.00, 0.000, 0.000, 0.000, 16:30:08.338, 1680381008338
85, 3560.39, 460.48, 345.76, 0.00, 0.000, 0.000, 0.000, 16:30:08.339, 1680381008339
86, 2691.52, -168.84, -199.69, 0.00, 0.000, 0.000, 0.000, 16:30:08.339, 1680381008339
87, 2477.33, -253.58, -281.20, 0.00, 0.000, 0.000, 0.000, 16:30:08.340, 1680381008340
88, 3426.72, 396.74, 331.91, 0.00, 0.000, 0.000, 0.000, 16:30:08.340, 1680381008340
89, 3101.11, 97.53, 113.40, 0.00, 0.000, 0.000, 0.000, 16:30:08.367, 1680381008367
90, 2445.49, -290.66, -223.86, 0.00, 0.000, 0.000, 0.000, 16:30:08.367, 1680381008367
91, 3066.75, 183.93, 170.89, 0.00, 0.000, 0.000, 0.000, 16:30:08.368, 1680381008368
92, 3469.87, 363.11, 387.53, 0.00, 0.000, 0.000, 0.000, 16:30:08.368, 1680381008368
93, 2504.39, -272.75, -183.13, 0.00, 0.000, 0.000, 0.000, 16:30:08.397, 1680381008397
94, 2710.18, -54.73, -60.76, 0.00, 0.000, 0.000, 0.000, 16:30:08.397, 1680381008397
95, 3595.92, 495.71, 466.66, 0.00, 0.000, 0.000, 0.000, 16:30:08.398, 1680381008398
96, 2710.49, -134.61, -115.18, 0.00, 0.000, 0.000, 0.000, 16:30:08.398, 1680381008398
97, 2487.01, -220.30, -237.78, 0.00, 0.000, 0.000, 0.000, 16:30:08.399, 1680381008399
98, 3406.95, 412.58, 309.93, 0.00, 0.000, 0.000, 0.000, 16:30:08.399, 1680381008399
99, 3079.27, 103.98, 51.58, 0.00, 0.000, 0.000, 0.000, 16:30:08.400, 1680381008400
100, 2409.15, -292.49, -331.45, 0.00, 0.000, 0.000, 0.000, 16:30:08.400, 1680381008400
101, 3047.31, 175.67, 57.59, 0.00, 0.000, 0.000, 0.000, 16:30:08.427, 1680381008427
102, 3429.78, 353.39, 274.72, 0.00, 0.000, 0.000, 0.000, 16:30:08.427, 1680381008427
103, 2461.01, -277.26, -287.91, 0.00, 0.000, 0.000, 0.000, 16:30:08.429, 1680381008429
104, 2675.87, -74.22, -123.38, 0.00, 0.000, 0.000, 0.000, 16:30:08.429, 1680381008429
105, 3569.35, 477.64, 427.00, 0.00, 0.000, 0.000, 0.000, 16:30:08.459, 1680381008459
106, 2686.30, -160.68, -124.82, 0.00, 0.000, 0.000, 0.000, 16:30:08.459, 1680381008459
107, 2460.07, -250.73, -240.74, 0.00, 0.000, 0.000, 0.000, 16:30:08.459, 1680381008459
108, 3384.21, 381.56, 312.58, 0.00, 0.000, 0.000, 0.000, 16:30:08.459, 1680381008459
109, 3074.92, 81.13, 63.56, 0.00, 0.000, 0.000, 0.000, 16:30:08.461, 1680381008461
110, 2400.66, -309.86, -341.02, 0.00, 0.000, 0.000, 0.000, 16:30:08.461, 1680381008461
111, 3031.31, 152.95, 15.29, 0.00, 0.000, 0.000, 0.000, 16:30:08.461, 1680381008461
112, 3430.29, 334.77, 216.86, 0.00, 0.000, 0.000, 0.000, 16:30:08.461, 1680381008461
113, 2470.81, -293.99, -336.18, 0.00, 0.000, 0.000, 0.000, 16:30:08.488, 1680381008488
114, 2682.11, -82.80, -177.89, 0.00, 0.000, 0.000, 0.000, 16:30:08.488, 1680381008488
115, 3585.27, 484.27, 383.96, 0.00, 0.000, 0.000, 0.000, 16:30:08.488, 1680381008488
116, 2696.45, -156.30, -146.20, 0.00, 0.000, 0.000, 0.000, 16:30:08.488, 1680381008488
117, 2485.64, -244.20, -231.76, 0.00, 0.000, 0.000, 0.000, 16:30:08.518, 1680381008518
118, 3400.66, 390.30, 330.52, 0.00, 0.000, 0.000, 0.000, 16:30:08.518, 1680381008518
119, 3053.69, 80.68, 88.93, 0.00, 0.000, 0.000, 0.000, 16:30:08.518, 1680381008518
120, 2408.64, -302.66, -270.98, 0.00, 0.000, 0.000, 0.000, 16:30:08.518, 1680381008518
121, 3037.17, 164.53, 102.71, 0.00, 0.000, 0.000, 0.000, 16:30:08.519, 1680381008519
122, 3427.72, 350.62, 296.96, 0.00, 0.000, 0.000, 0.000, 16:30:08.519, 1680381008519
123, 2471.67, -280.83, -289.20, 0.00, 0.000, 0.000, 0.000, 16:30:08.526, 1680381008526
124, 2689.53, -73.02, -153.28, 0.00, 0.000, 0.000, 0.000, 16:30:08.526, 1680381008526
125, 3579.48, 484.72, 381.24, 0.00, 0.000, 0.000, 0.000, 16:30:08.547, 1680381008547
126, 2700.29, -152.11, -176.17, 0.00, 0.000, 0.000, 0.000, 16:30:08.547, 1680381008547
127, 2475.72, -230.15, -271.52, 0.00, 0.000, 0.000, 0.000, 16:30:08.548, 1680381008548
128, 3406.91, 402.67, 312.06, 0.00, 0.000, 0.000, 0.000, 16:30:08.548, 1680381008548
129, 3058.80, 79.74, 88.15, 0.00, 0.000, 0.000, 0.000, 16:30:08.577, 1680381008577
130, 2403.86, -302.54, -256.77, 0.00, 0.000, 0.000, 0.000, 16:30:08.577, 1680381008577
131, 3043.05, 175.47, 136.71, 0.00, 0.000, 0.000, 0.000, 16:30:08.579, 1680381008579
132, 3423.51, 346.89, 325.86, 0.00, 0.000, 0.000, 0.000, 16:30:08.579, 1680381008579
133, 2454.61, -290.17, -265.17, 0.00, 0.000, 0.000, 0.000, 16:30:08.579, 1680381008579
134, 2679.88, -76.20, -134.99, 0.00, 0.000, 0.000, 0.000, 16:30:08.579, 1680381008579
135, 3571.08, 476.99, 395.26, 0.00, 0.000, 0.000, 0.000, 16:30:08.580, 1680381008580
136, 2676.42, -161.06, -177.37, 0.00, 0.000, 0.000, 0.000, 16:30:08.580, 1680381008580
137, 2463.83, -239.65, -277.00, 0.00, 0.000, 0.000, 0.000, 16:30:08.607, 1680381008607
138, 3385.44, 380.91, 284.19, 0.00, 0.000, 0.000, 0.000, 16:30:08.607, 1680381008607
139, 3032.23, 65.44, 36.12, 0.00, 0.000, 0.000, 0.000, 16:30:08.608, 1680381008608
140, 2374.62, -307.26, -310.65, 0.00, 0.000, 0.000, 0.000, 16:30:08.608, 1680381008608
141, 3004.68, 153.56, 90.14, 0.00, 0.000, 0.000, 0.000, 16:30:08.638, 1680381008638
142, 3392.90, 333.85, 303.80, 0.00, 0.000, 0.000, 0.000, 16:30:08.638, 1680381008638
143, 2438.40, -296.53, -250.14, 0.00, 0.000, 0.000, 0.000, 16:30:08.639, 1680381008639
144, 2678.36, -73.62, -99.13, 0.00, 0.000, 0.000, 0.000, 16:30:08.639, 1680381008639
145, 3555.93, 477.39, 427.18, 0.00, 0.000, 0.000, 0.000, 16:30:08.640, 1680381008640
146, 2677.09, -157.58, -135.02, 0.00, 0.000, 0.000, 0.000, 16:30:08.640, 1680381008640
147, 2468.76, -228.90, -244.21, 0.00, 0.000, 0.000, 0.000, 16:30:08.640, 1680381008640
148, 3395.51, 399.86, 308.80, 0.00, 0.000, 0.000, 0.000, 16:30:08.640, 1680381008640
149, 3044.18, 83.48, 58.07, 0.00, 0.000, 0.000, 0.000, 16:30:08.668, 1680381008668
150, 2398.62, -295.36, -291.60, 0.00, 0.000, 0.000, 0.000, 16:30:08.668, 1680381008668
151, 3031.99, 172.07, 110.15, 0.00, 0.000, 0.000, 0.000, 16:30:08.669, 1680381008669
152, 3405.57, 338.34, 308.97, 0.00, 0.000, 0.000, 0.000, 16:30:08.669, 1680381008669
153, 2440.46, -287.21, -258.44, 0.00, 0.000, 0.000, 0.000, 16:30:08.698, 1680381008698
154, 2677.60, -67.41, -97.71, 0.00, 0.000, 0.000, 0.000, 16:30:08.698, 1680381008698
155, 3565.29, 482.88, 444.63, 0.00, 0.000, 0.000, 0.000, 16:30:08.699, 1680381008699
156, 2666.14, -161.66, -127.32, 0.00, 0.000, 0.000, 0.000, 16:30:08.699, 1680381008699
157, 2464.70, -234.33, -232.22, 0.00, 0.000, 0.000, 0.000, 16:30:08.700, 1680381008700
158, 3402.11, 407.38, 340.27, 0.00, 0.000, 0.000, 0.000, 16:30:08.700, 1680381008700
159, 3054.98, 89.93, 95.85, 0.00, 0.000, 0.000, 0.000, 16:30:08.701, 1680381008701
160, 2403.33, -297.81, -276.70, 0.00, 0.000, 0.000, 0.000, 16:30:08.701, 1680381008701
161, 3047.43, 179.35, 113.01, 0.00, 0.000, 0.000, 0.000, 16:30:08.728, 1680381008728
162, 3418.09, 346.19, 310.23, 0.00, 0.000, 0.000, 0.000, 16:30:08.728, 1680381008728
163, 2456.43, -284.73, -260.67, 0.00, 0.000, 0.000, 0.000, 16:30:08.729, 1680381008729
164, 2696.41, -61.45, -98.07, 0.00, 0.000, 0.000, 0.000, 16:30:08.729, 1680381008729
165, 3570.45, 489.69, 428.22, 0.00, 0.000, 0.000, 0.000, 16:30:08.758, 1680381008758
166, 2680.06, -157.91, -134.46, 0.00, 0.000, 0.000, 0.000, 16:30:08.758, 1680381008758
167, 2468.73, -230.73, -225.47, 0.00, 0.000, 0.000, 0.000, 16:30:08.758, 1680381008758
168, 3399.94, 403.73, 330.60, 0.00, 0.000, 0.000, 0.000, 16:30:08.758, 1680381008758
169, 3041.40, 86.16, 87.69, 0.00, 0.000, 0.000, 0.000, 16:30:08.759, 1680381008759
170, 2402.93, -293.33, -266.54, 0.00, 0.000, 0.000, 0.000, 16:30:08.759, 1680381008759
171, 3028.65, 171.06, 112.80, 0.00, 0.000, 0.000, 0.000, 16:30:08.760, 1680381008760
172, 3406.10, 341.78, 304.47, 0.00, 0.000, 0.000, 0.000, 16:30:08.760, 1680381008760
173, 2450.00, -290.47, -259.79, 0.00, 0.000, 0.000, 0.000, 16:30:08.787, 1680381008787
174, 2681.65, -70.62, -112.48, 0.00, 0.000, 0.000, 0.000, 16:30:08.787, 1680381008787
175, 3560.54, 480.34, 412.56, 0.00, 0.000, 0.000, 0.000, 16:30:08.789, 1680381008789
176, 2663.89, -168.67, -154.89, 0.00, 0.000, 0.000, 0.000, 16:30:08.789, 1680381008789
177, 2467.36, -231.68, -255.21, 0.00, 0.000, 0.000, 0.000, 16:30:08.817, 1680381008817
178, 3388.26, 395.02, 304.68, 0.00, 0.000, 0.000, 0.000, 16:30:08.817, 1680381008817
179, 3033.75, 69.41, 49.60, 0.00, 0.000, 0.000, 0.000, 16:30:08.818, 1680381008818
180, 2385.93, -309.57, -299.82, 0.00, 0.000, 0.000, 0.000, 16:30:08.818, 1680381008818
181, 3033.96, 170.94, 91.33, 0.00, 0.000, 0.000, 0.000, 16:30:08.819, 1680381008819
182, 3405.14, 336.56, 288.33, 0.00, 0.000, 0.000, 0.000, 16:30:08.819, 1680381008819
183, 2442.30, -291.91, -278.41, 0.00, 0.000, 0.000, 0.000, 16:30:08.820, 1680381008820
184, 2690.11, -69.68, -118.90, 0.00, 0.000, 0.000, 0.000, 16:30:08.820, 1680381008820
185, 3557.84, 472.32, 399.70, 0.00, 0.000, 0.000, 0.000, 16:30:08.847, 1680381008847
186, 2671.50, -167.89, -158.63, 0.00, 0.000, 0.000, 0.000, 16:30:08.847, 1680381008847
187, 2479.93, -227.53, -241.27, 0.00, 0.000, 0.000, 0.000, 16:30:08.848, 1680381008848
188, 3411.63, 407.31, 323.33, 0.00, 0.000, 0.000, 0.000, 16:30:08.848, 1680381008848
189, 3056.67, 81.03, 63.36, 0.00, 0.000, 0.000, 0.000, 16:30:08.878, 1680381008878
190, 2407.41, -293.38, -284.65, 0.00, 0.000, 0.000, 0.000, 16:30:08.878, 1680381008878
191, 3053.50, 184.59, 108.70, 0.00, 0.000, 0.000, 0.000, 16:30:08.878, 1680381008878
192, 3410.50, 335.95, 292.53, 0.00, 0.000, 0.000, 0.000, 16:30:08.878, 1680381008878
193, 2452.45, -289.76, -265.82, 0.00, 0.000, 0.000, 0.000, 16:30:08.879, 1680381008879
194, 2710.94, -55.06, -99.08, 0.00, 0.000, 0.000, 0.000, 16:30:08.879, 1680381008879
195, 3574.46, 477.94, 426.03, 0.00, 0.000, 0.000, 0.000, 16:30:08.880, 1680381008880
196, 2673.78, -165.76, -152.67, 0.00, 0.000, 0.000, 0.000, 16:30:08.880, 1680381008880
197, 2483.82, -229.49, -240.67, 0.00, 0.000, 0.000, 0.000, 16:30:08.907, 1680381008907
198, 3409.49, 405.17, 329.52, 0.00, 0.000, 0.000, 0.000, 16:30:08.907, 1680381008907
199, 3041.34, 67.15, 68.23, 0.00, 0.000, 0.000, 0.000, 16:30:08.908, 1680381008908
200, 2403.00, -300.65, -284.60, 0.00, 0.000, 0.000, 0.000, 16:30:08.908, 1680381008908
0, 113.54, 181.65, 131.22, 0.00, 0.000, 0.000, 0.000, 16:30:08.909, 1680381008909
1, 470.71, 338.19, 314.02, 0.00, 0.000, 0.000, 0.000, 16:30:08.937, 1680381008937
2, -483.96, -285.22, -250.87, 0.00, 0.000, 0.000, 0.000, 16:30:08.937, 1680381008937
3, -237.72, -64.05, -85.59, 0.00, 0.000, 0.000, 0.000, 16:30:08.938, 1680381008938
4, 620.86, 468.26, 419.98, 0.00, 0.000, 0.000, 0.000, 16:30:08.938, 1680381008938
5, -278.35, -153.62, -143.36, 0.00, 0.000, 0.000, 0.000, 16:30:08.939, 1680381008939
6, -471.94, -199.63, -239.85, 0.00, 0.000, 0.000, 0.000, 16:30:08.939, 1680381008939
7, 445.71, 430.88, 310.83, 0.00, 0.000, 0.000, 0.000, 16:30:08.967, 1680381008967
8, 59.37, 96.38, 35.20, 0.00, 0.000, 0.000, 0.000, 16:30:08.967, 1680381008967
9, -590.31, -312.29, -310.92, 0.00, 0.000, 0.000, 0.000, 16:30:08.968, 1680381008968
10, 57.30, 140.22, 97.76, 0.00, 0.000, 0.000, 0.000, 16:30:08.968, 1680381008968
11, 417.44, 288.14, 290.00, 0.00, 0.000, 0.000, 0.000, 16:30:08.969, 1680381008969
12, -514.41, -317.50, -251.23, 0.00, 0.000, 0.000, 0.000, 16:30:08.969, 1680381008969
13, -245.39, -70.01, -77.68, 0.00, 0.000, 0.000, 0.000, 16:30:08.997, 1680381008997
14, 624.88, 477.85, 444.74, 0.00, 0.000, 0.000, 0.000, 16:30:08.997, 1680381008997
15, -269.64, -168.17, -129.64, 0.00, 0.000, 0.000, 0.000, 16:30:08.998, 1680381008998
16, -460.30, -227.01, -221.44, 0.00, 0.000, 0.000, 0.000, 16:30:08.998, 1680381008998
17, 458.95, 401.13, 338.52, 0.00, 0.000, 0.000, 0.000, 16:30:08.999, 1680381008999
18, 93.53, 75.47, 68.94, 0.00, 0.000, 0.000, 0.000, 16:30:08.999, 1680381008999
19, -555.88, -305.18, -293.99, 0.00, 0.000, 0.000, 0.000, 16:30:09.028, 1680381009028
20, 104.46, 176.54, 113.58, 0.00, 0.000, 0.000, 0.000, 16:30:09.028, 1680381009028
21, 453.56, 335.82, 296.39, 0.00, 0.000, 0.000, 0.000, 16:30:09.029, 1680381009029
22, -494.67, -285.35, -254.78, 0.00, 0.000, 0.000, 0.000, 16:30:09.029, 1680381009029
23, -254.13, -66.04, -94.07, 0.00, 0.000, 0.000, 0.000, 16:30:09.030, 1680381009030
24, 609.97, 473.71, 429.08, 0.00, 0.000, 0.000, 0.000, 16:30:09.030, 1680381009030
25, -287.59, -161.62, -139.83, 0.00, 0.000, 0.000, 0.000, 16:30:09.059, 1680381009059
26, -471.85, -226.77, -236.46, 0.00, 0.000, 0.000, 0.000, 16:30:09.059, 1680381009059
27, 456.58, 406.83, 315.95, 0.00, 0.000, 0.000, 0.000, 16:30:09.060, 1680381009060
28, 87.45, 68.66, 38.28, 0.00, 0.000, 0.000, 0.000, 16:30:09.060, 1680381009060
29, -545.82, -299.47, -307.65, 0.00, 0.000, 0.000, 0.000, 16:30:09.061, 1680381009061
30, 117.79, 190.75, 118.93, 0.00, 0.000, 0.000, 0.000, 16:30:09.061, 1680381009061
31, 463.58, 335.75, 332.05, 0.00, 0.000, 0.000, 0.000, 16:30:09.088, 1680381009088
32, -509.86, -293.00, -216.90, 0.00, 0.000, 0.000, 0.000, 16:30:09.088, 1680381009088
33, -247.71, -57.61, -29.43, 0.00, 0.000, 0.000, 0.000, 16:30:09.088, 1680381009088
34, 611.38, 482.00, 486.08, 0.00, 0.000, 0.000, 0.000, 16:30:09.088, 1680381009088
35, -294.60, -170.26, -111.43, 0.00, 0.000, 0.000, 0.000, 16:30:09.089, 1680381009089
36, -484.22, -229.53, -243.25, 0.00, 0.000, 0.000, 0.000, 16:30:09.089, 1680381009089
37, 461.92, 414.37, 300.87, 0.00, 0.000, 0.000, 0.000, 16:30:09.118, 1680381009118
38, 92.22, 78.81, 15.46, 0.00, 0.000, 0.000, 0.000, 16:30:09.118, 1680381009118
39, -536.98, -288.51, -336.45, 0.00, 0.000, 0.000, 0.000, 16:30:09.119, 1680381009119
40, 118.24, 185.50, 77.68, 0.00, 0.000, 0.000, 0.000, 16:30:09.119, 1680381009119
41, 472.96, 339.59, 283.12, 0.00, 0.000, 0.000, 0.000, 16:30:09.120, 1680381009120
42, -481.32, -273.56, -266.77, 0.00, 0.000, 0.000, 0.000, 16:30:09.120, 1680381009120
43, -232.02, -54.37, -96.34, 0.00, 0.000, 0.000, 0.000, 16:30:09.148, 1680381009148
44, 635.98, 488.27, 420.44, 0.00, 0.000, 0.000, 0.000, 16:30:09.148, 1680381009148
45, -282.30, -165.19, -153.09, 0.00, 0.000, 0.000, 0.000, 16:30:09.148, 1680381009148
46, -460.61, -223.99, -225.48, 0.00, 0.000, 0.000, 0.000, 16:30:09.148, 1680381009148
47, 471.97, 411.63, 347.55, 0.00, 0.000, 0.000, 0.000, 16:30:09.149, 1680381009149
48, 86.43, 69.57, 70.70, 0.00, 0.000, 0.000, 0.000, 16:30:09.149, 1680381009149
49, -545.75, -296.63, -276.36, 0.00, 0.000, 0.000, 0.000, 16:30:09.177, 1680381009177
50, 118.04, 195.52, 130.56, 0.00, 0.000, 0.000, 0.000, 16:30:09.177, 1680381009177
51, 463.21, 339.15, 299.38, 0.00, 0.000, 0.000, 0.000, 16:30:09.178, 1680381009178
52, -492.07, -283.46, -274.03, 0.00, 0.000, 0.000, 0.000, 16:30:09.178, 1680381009178
53, -238.66, -63.54, -123.31, 0.00, 0.000, 0.000, 0.000, 16:30:09.179, 1680381009179
54, 625.91, 479.77, 409.14, 0.00, 0.000, 0.000, 0.000, 16:30:09.179, 1680381009179
55, -275.84, -169.24, -170.92, 0.00, 0.000, 0.000, 0.000, 16:30:09.208, 1680381009208
56, -463.75, -224.19, -246.47, 0.00, 0.000, 0.000, 0.000, 16:30:09.208, 1680381009208
57, 476.52, 404.46, 339.09, 0.00, 0.000, 0.000, 0.000, 16:30:09.210, 1680381009210
58, 95.53, 62.47, 70.92, 0.00, 0.000, 0.000, 0.000, 16:30:09.210, 1680381009210
59, -536.89, -305.69, -269.61, 0.00, 0.000, 0.000, 0.000, 16:30:09.210, 1680381009210
60, 135.42, 197.69, 161.26, 0.00, 0.000, 0.000, 0.000, 16:30:09.210, 1680381009210
61, 468.25, 323.67, 326.31, 0.00, 0.000, 0.000, 0.000, 16:30:09.238, 1680381009238
62, -493.01, -289.49, -235.72, 0.00, 0.000, 0.000, 0.000, 16:30:09.238, 1680381009238
63, -235.42, -58.78, -72.17, 0.00, 0.000, 0.000, 0.000, 16:30:09.238, 1680381009238
64, 632.23, 461.93, 439.13, 0.00, 0.000, 0.000, 0.000, 16:30:09.238, 1680381009238
65, -280.37, -172.67, -144.31, 0.00, 0.000, 0.000, 0.000, 16:30:09.239, 1680381009239
66, -474.79, -244.01, -212.27, 0.00, 0.000, 0.000, 0.000, 16:30:09.239, 1680381009239
67, 491.25, 400.77, 371.67, 0.00, 0.000, 0.000, 0.000, 16:30:09.268, 1680381009268
68, 69.81, 60.94, 89.30, 0.00, 0.000, 0.000, 0.000, 16:30:09.268, 1680381009268
69, -568.57, -308.88, -250.84, 0.00, 0.000, 0.000, 0.000, 16:30:09.268, 1680381009268
70, 118.86, 171.07, 169.14, 0.00, 0.000, 0.000, 0.000, 16:30:09.268, 1680381009268
71, 415.42, 279.42, 307.85, 0.00, 0.000, 0.000, 0.000, 16:30:09.269, 1680381009269
72, -526.54, -302.87, -223.12, 0.00, 0.000, 0.000, 0.000, 16:30:09.269, 1680381009269
73, -263.53, -72.94, -85.48, 0.00, 0.000, 0.000, 0.000, 16:30:09.298, 1680381009298
74, 584.24, 459.66, 413.35, 0.00, 0.000, 0.000, 0.000, 16:30:09.298, 1680381009298
75, -309.73, -190.79, -157.09, 0.00, 0.000, 0.000, 0.000, 16:30:09.298, 1680381009298
76, -501.85, -245.52, -236.35, 0.00, 0.000, 0.000, 0.000, 16:30:09.298, 1680381009298
77, 448.35, 393.08, 342.96, 0.00, 0.000, 0.000, 0.000, 16:30:09.299, 1680381009299
78, 68.48, 55.03, 54.83, 0.00, 0.000, 0.000, 0.000, 16:30:09.299, 1680381009299
79, -538.86, -303.14, -269.13, 0.00, 0.000, 0.000, 0.000, 16:30:09.328, 1680381009328
80, 113.78, 179.73, 122.36, 0.00, 0.000, 0.000, 0.000, 16:30:09.328, 1680381009328
81, 433.40, 319.48, 302.31, 0.00, 0.000, 0.000, 0.000, 16:30:09.329, 1680381009329
82, -486.10, -301.31, -258.82, 0.00, 0.000, 0.000, 0.000, 16:30:09.329, 1680381009329
83, -239.91, -63.96, -89.69, 0.00, 0.000, 0.000, 0.000, 16:30:09.330, 1680381009330
84, 618.82, 470.67, 427.67, 0.00, 0.000, 0.000, 0.000, 16:30:09.330, 1680381009330
85, -278.87, -183.16, -147.53, 0.00, 0.000, 0.000, 0.000, 16:30:09.358, 1680381009358
86, -440.81, -239.72, -246.66, 0.00, 0.000, 0.000, 0.000, 16:30:09.358, 1680381009358
87, 514.87, 406.66, 322.91, 0.00, 0.000, 0.000, 0.000, 16:30:09.360, 1680381009360
88, 108.55, 58.32, 44.85, 0.00, 0.000, 0.000, 0.000, 16:30:09.360, 1680381009360
89, -514.15, -291.95, -281.13, 0.00, 0.000, 0.000, 0.000, 16:30:09.360, 1680381009360
90, 151.65, 196.05, 144.53, 0.00, 0.000, 0.000, 0.000, 16:30:09.360, 1680381009360
91, 477.02, 329.87, 317.70, 0.00, 0.000, 0.000, 0.000, 16:30:09.387, 1680381009387
92, -457.83, -293.11, -217.96, 0.00, 0.000, 0.000, 0.000, 16:30:09.387, 1680381009387
93, -195.81, -44.50, -52.90, 0.00, 0.000, 0.000, 0.000, 16:30:09.388, 1680381009388
94, 664.09, 488.07, 460.00, 0.00, 0.000, 0.000, 0.000, 16:30:09.388, 1680381009388
95, -261.45, -169.25, -132.97, 0.00, 0.000, 0.000, 0.000, 16:30:09.389, 1680381009389
96, -417.66, -201.43, -203.97, 0.00, 0.000, 0.000, 0.000, 16:30:09.389, 1680381009389
97, 502.36, 430.94, 343.68, 0.00, 0.000, 0.000, 0.000, 16:30:09.419, 1680381009419
98, 105.61, 71.31, 64.90, 0.00, 0.000, 0.000, 0.000, 16:30:09.419, 1680381009419
99, -517.27, -289.69, -279.11, 0.00, 0.000, 0.000, 0.000, 16:30:09.419, 1680381009419
100, 155.89, 212.64, 129.54, 0.00, 0.000, 0.000, 0.000, 16:30:09.419, 1680381009419
101, 477.49, 333.94, 294.20, 0.00, 0.000, 0.000, 0.000, 16:30:09.420, 1680381009420
102, -474.12, -270.90, -255.20, 0.00, 0.000, 0.000, 0.000, 16:30:09.420, 1680381009420
103, -206.97, -32.27, -79.22, 0.00, 0.000, 0.000, 0.000, 16:30:09.448, 1680381009448
104, 646.13, 499.21, 445.25, 0.00, 0.000, 0.000, 0.000, 16:30:09.448, 1680381009448
105, -265.67, -165.52, -126.08, 0.00, 0.000, 0.000, 0.000, 16:30:09.449, 1680381009449
106, -443.73, -222.00, -217.82, 0.00, 0.000, 0.000, 0.000, 16:30:09.449, 1680381009449
107, 482.78, 416.69, 350.42, 0.00, 0.000, 0.000, 0.000, 16:30:09.450, 1680381009450
108, 94.40, 58.52, 52.89, 0.00, 0.000, 0.000, 0.000, 16:30:09.450, 1680381009450
109, -526.83, -296.83, -296.12, 0.00, 0.000, 0.000, 0.000, 16:30:09.479, 1680381009479
110, 149.46, 193.45, 106.44, 0.00, 0.000, 0.000, 0.000, 16:30:09.479, 1680381009479
111, 466.90, 320.50, 258.47, 0.00, 0.000, 0.000, 0.000, 16:30:09.479, 1680381009479
112, -481.49, -289.74, -317.80, 0.00, 0.000, 0.000, 0.000, 16:30:09.479, 1680381009479
113, -209.61, -47.91, -149.84, 0.00, 0.000, 0.000, 0.000, 16:30:09.480, 1680381009480
114, 645.02, 481.90, 365.36, 0.00, 0.000, 0.000, 0.000, 16:30:09.480, 1680381009480
115, -271.99, -176.38, -209.98, 0.00, 0.000, 0.000, 0.000, 16:30:09.508, 1680381009508
116, -436.35, -224.66, -269.73, 0.00, 0.000, 0.000, 0.000, 16:30:09.508, 1680381009508
117, 497.38, 414.47, 321.76, 0.00, 0.000, 0.000, 0.000, 16:30:09.509, 1680381009509
118, 108.28, 60.47, 53.03, 0.00, 0.000, 0.000, 0.000, 16:30:09.509, 1680381009509
119, -519.20, -293.04, -284.01, 0.00, 0.000, 0.000, 0.000, 16:30:09.510, 1680381009510
120, 141.58, 189.93, 127.91, 0.00, 0.000, 0.000, 0.000, 16:30:09.510, 1680381009510
121, 454.45, 309.98, 276.58, 0.00, 0.000, 0.000, 0.000, 16:30:09.538, 1680381009538
122, -488.17, -300.13, -274.81, 0.00, 0.000, 0.000, 0.000, 16:30:09.538, 1680381009538
123, -214.58, -47.26, -102.13, 0.00, 0.000, 0.000, 0.000, 16:30:09.539, 1680381009539
124, 636.26, 474.53, 395.44, 0.00, 0.000, 0.000, 0.000, 16:30:09.539, 1680381009539
125, -288.98, -193.06, -193.71, 0.00, 0.000, 0.000, 0.000, 16:30:09.540, 1680381009540
126, -451.15, -231.59, -275.16, 0.00, 0.000, 0.000, 0.000, 16:30:09.540, 1680381009540
127, 481.25, 411.17, 298.73, 0.00, 0.000, 0.000, 0.000, 16:30:09.569, 1680381009569
128, 65.82, 53.30, 8.31, 0.00, 0.000, 0.000, 0.000, 16:30:09.569, 1680381009569
129, -537.36, -296.91, -317.12, 0.00, 0.000, 0.000, 0.000, 16:30:09.569, 1680381009569
130, 136.11, 195.80, 103.64, 0.00, 0.000, 0.000, 0.000, 16:30:09.569, 1680381009569
131, 436.91, 310.32, 275.80, 0.00, 0.000, 0.000, 0.000, 16:30:09.570, 1680381009570
132, -504.04, -298.81, -280.74, 0.00, 0.000, 0.000, 0.000, 16:30:09.570, 1680381009570
133, -235.14, -51.19, -106.49, 0.00, 0.000, 0.000, 0.000, 16:30:09.598, 1680381009598
134, 618.02, 474.46, 402.05, 0.00, 0.000, 0.000, 0.000, 16:30:09.598, 1680381009598
135, -297.45, -182.10, -172.61, 0.00, 0.000, 0.000, 0.000, 16:30:09.599, 1680381009599
136, -453.14, -227.13, -248.85, 0.00, 0.000, 0.000, 0.000, 16:30:09.599, 1680381009599
137, 480.03, 408.39, 324.50, 0.00, 0.000, 0.000, 0.000, 16:30:09.600, 1680381009600
138, 57.08, 42.55, 28.08, 0.00, 0.000, 0.000, 0.000, 16:30:09.600, 1680381009600
139, -543.12, -298.48, -294.80, 0.00, 0.000, 0.000, 0.000, 16:30:09.628, 1680381009628
140, 137.08, 192.17, 124.78, 0.00, 0.000, 0.000, 0.000, 16:30:09.629, 1680381009629
141, 428.72, 311.87, 279.29, 0.00, 0.000, 0.000, 0.000, 16:30:09.629, 1680381009629
142, -508.24, -298.23, -271.17, 0.00, 0.000, 0.000, 0.000, 16:30:09.629, 1680381009629
143, -231.60, -45.73, -85.17, 0.00, 0.000, 0.000, 0.000, 16:30:09.630, 1680381009630
144, 618.98, 481.46, 423.31, 0.00, 0.000, 0.000, 0.000, 16:30:09.630, 1680381009630
145, -298.67, -184.60, -148.46, 0.00, 0.000, 0.000, 0.000, 16:30:09.659, 1680381009659
146, -463.02, -219.40, -222.50, 0.00, 0.000, 0.000, 0.000, 16:30:09.659, 1680381009659
147, 479.42, 417.99, 347.34, 0.00, 0.000, 0.000, 0.000, 16:30:09.660, 1680381009660
148, 52.31, 44.32, 39.62, 0.00, 0.000, 0.000, 0.000, 16:30:09.660, 1680381009660
149, -545.02, -304.63, -293.27, 0.00, 0.000, 0.000, 0.000, 16:30:09.661, 1680381009661
150, 123.73, 188.50, 112.22, 0.00, 0.000, 0.000, 0.000, 16:30:09.661, 1680381009661
151, 433.26, 316.33, 273.32, 0.00, 0.000, 0.000, 0.000, 16:30:09.690, 1680381009690
152, -502.98, -295.79, -281.27, 0.00, 0.000, 0.000, 0.000, 16:30:09.690, 1680381009690
153, -226.36, -52.62, -94.44, 0.00, 0.000, 0.000, 0.000, 16:30:09.690, 1680381009690
154, 629.14, 479.43, 422.23, 0.00, 0.000, 0.000, 0.000, 16:30:09.690, 1680381009690
155, -296.29, -183.52, -148.54, 0.00, 0.000, 0.000, 0.000, 16:30:09.691, 1680381009691
156, -444.64, -213.13, -207.48, 0.00, 0.000, 0.000, 0.000, 16:30:09.691, 1680381009691
157, 504.60, 427.64, 375.85, 0.00, 0.000, 0.000, 0.000, 16:30:09.718, 1680381009718
158, 84.35, 64.86, 77.52, 0.00, 0.000, 0.000, 0.000, 16:30:09.718, 1680381009718
159, -531.23, -265.69, -269.07, 0.00, 0.000, 0.000, 0.000, 16:30:09.719, 1680381009719
160, 134.18, 231.68, 120.97, 0.00, 0.000, 0.000, 0.000, 16:30:09.719, 1680381009719
161, 417.32, 337.22, 253.37, 0.00, 0.000, 0.000, 0.000, 16:30:09.720, 1680381009720
162, -527.26, -274.89, -307.32, 0.00, 0.000, 0.000, 0.000, 16:30:09.720, 1680381009720
163, -258.76, -68.95, -122.28, 0.00, 0.000, 0.000, 0.000, 16:30:09.748, 1680381009748
164, 593.79, 438.56, 398.52, 0.00, 0.000, 0.000, 0.000, 16:30:09.748, 1680381009748
165, -320.29, -220.32, -160.20, 0.00, 0.000, 0.000, 0.000, 16:30:09.749, 1680381009749
166, -452.40, -235.13, -218.43, 0.00, 0.000, 0.000, 0.000, 16:30:09.749, 1680381009749
167, 499.35, 410.51, 364.19, 0.00, 0.000, 0.000, 0.000, 16:30:09.750, 1680381009750
168, 75.62, 47.39, 64.21, 0.00, 0.000, 0.000, 0.000, 16:30:09.750, 1680381009750
169, -527.82, -292.11, -260.32, 0.00, 0.000, 0.000, 0.000, 16:30:09.779, 1680381009779
170, 149.36, 198.57, 149.85, 0.00, 0.000, 0.000, 0.000, 16:30:09.779, 1680381009779
171, 439.81, 307.33, 281.52, 0.00, 0.000, 0.000, 0.000, 16:30:09.780, 1680381009780
172, -500.93, -290.51, -269.76, 0.00, 0.000, 0.000, 0.000, 16:30:09.780, 1680381009780
173, -215.51, -44.73, -97.83, 0.00, 0.000, 0.000, 0.000, 16:30:09.780, 1680381009780
174, 623.67, 472.03, 407.00, 0.00, 0.000, 0.000, 0.000, 16:30:09.780, 1680381009780
175, -299.45, -183.41, -174.46, 0.00, 0.000, 0.000, 0.000, 16:30:09.808, 1680381009808
176, -459.33, -223.56, -244.08, 0.00, 0.000, 0.000, 0.000, 16:30:09.808, 1680381009808
177, 488.20, 420.32, 345.46, 0.00, 0.000, 0.000, 0.000, 16:30:09.809, 1680381009809
178, 60.86, 47.58, 48.97, 0.00, 0.000, 0.000, 0.000, 16:30:09.809, 1680381009809
179, -535.94, -296.45, -279.21, 0.00, 0.000, 0.000, 0.000, 16:30:09.816, 1680381009816
180, 147.97, 198.65, 123.62, 0.00, 0.000, 0.000, 0.000, 16:30:09.816, 1680381009816
181, 435.78, 312.48, 251.92, 0.00, 0.000, 0.000, 0.000, 16:30:09.839, 1680381009839
182, -500.66, -293.74, -310.88, 0.00, 0.000, 0.000, 0.000, 16:30:09.839, 1680381009839
183, -207.18, -40.53, -117.96, 0.00, 0.000, 0.000, 0.000, 16:30:09.840, 1680381009840
184, 630.83, 484.67, 419.04, 0.00, 0.000, 0.000, 0.000, 16:30:09.840, 1680381009840
185, -303.92, -187.19, -128.19, 0.00, 0.000, 0.000, 0.000, 16:30:09.841, 1680381009841
186, -457.99, -221.20, -169.06, 0.00, 0.000, 0.000, 0.000, 16:30:09.841, 1680381009841
187, 493.28, 420.99, 419.82, 0.00, 0.000, 0.000, 0.000, 16:30:09.869, 1680381009869
188, 43.55, 41.38, 89.32, 0.00, 0.000, 0.000, 0.000, 16:30:09.869, 1680381009869
189, -547.37, -295.72, -265.66, 0.00, 0.000, 0.000, 0.000, 16:30:09.869, 1680381009869
190, 137.94, 207.86, 108.62, 0.00, 0.000, 0.000, 0.000, 16:30:09.869, 1680381009869
191, 431.97, 315.72, 216.98, 0.00, 0.000, 0.000, 0.000, 16:30:09.870, 1680381009870
192, -504.51, -295.36, -336.71, 0.00, 0.000, 0.000, 0.000, 16:30:09.870, 1680381009870
193, -214.46, -45.76, -147.18, 0.00, 0.000, 0.000, 0.000, 16:30:09.899, 1680381009899
194, 622.97, 470.68, 367.34, 0.00, 0.000, 0.000, 0.000, 16:30:09.899, 1680381009899
195, -294.63, -183.97, -191.97, 0.00, 0.000, 0.000, 0.000, 16:30:09.899, 1680381009899
196, -439.13, -211.73, -231.69, 0.00, 0.000, 0.000, 0.000, 16:30:09.899, 1680381009899
197, 502.35, 419.83, 345.38, 0.00, 0.000, 0.000, 0.000, 16:30:09.900, 1680381009900
198, 51.87, 34.03, 40.85, 0.00, 0.000, 0.000, 0.000, 16:30:09.900, 1680381009900
199, -547.72, -303.59, -279.89, 0.00, 0.000, 0.000, 0.000, 16:30:09.929, 1680381009929
200, 137.49, 198.42, 153.58, 0.00, 0.000, 0.000, 0.000, 16:30:09.929, 1680381009929
0, 423.27, 311.74, 294.15, 0.00, 0.000, 0.000, 0.000, 16:30:09.929, 1680381009929
1, -516.99, -297.21, -252.29, 0.00, 0.000, 0.000, 0.000, 16:30:09.930, 1680381009930
2, -227.21, -44.67, -71.16, 0.00, 0.000, 0.000, 0.000, 16:30:09.930, 1680381009930
3, 600.69, 462.87, 410.04, 0.00, 0.000, 0.000, 0.000, 16:30:09.931, 1680381009931
4, -336.40, -200.45, -186.16, 0.00, 0.000, 0.000, 0.000, 16:30:09.931, 1680381009931
5, -477.33, -218.80, -261.34, 0.00, 0.000, 0.000, 0.000, 16:30:09.958, 1680381009958
6, 466.72, 419.97, 314.54, 0.00, 0.000, 0.000, 0.000, 16:30:09.958, 1680381009958
7, 22.28, 41.86, 11.21, 0.00, 0.000, 0.000, 0.000, 16:30:09.959, 1680381009959
8, -568.63, -295.47, -308.07, 0.00, 0.000, 0.000, 0.000, 16:30:09.959, 1680381009959
9, 137.00, 210.65, 132.83, 0.00, 0.000, 0.000, 0.000, 16:30:09.988, 1680381009988
10, 415.73, 307.51, 277.70, 0.00, 0.000, 0.000, 0.000, 16:30:09.988, 1680381009988
11, -511.70, -300.48, -252.45, 0.00, 0.000, 0.000, 0.000, 16:30:09.990, 1680381009990
12, -217.42, -41.15, -62.10, 0.00, 0.000, 0.000, 0.000, 16:30:09.990, 1680381009990
13, 622.90, 473.96, 442.16, 0.00, 0.000, 0.000, 0.000, 16:30:09.990, 1680381009990
14, -318.06, -189.38, -144.74, 0.00, 0.000, 0.000, 0.000, 16:30:09.990, 1680381009990
15, -458.83, -223.54, -214.23, 0.00, 0.000, 0.000, 0.000, 16:30:09.991, 1680381009991
16, 492.28, 420.16, 354.61, 0.00, 0.000, 0.000, 0.000, 16:30:09.991, 1680381009991
17, 45.09, 36.09, 38.87, 0.00, 0.000, 0.000, 0.000, 16:30:10.018, 1680381010018
18, -541.54, -298.46, -278.34, 0.00, 0.000, 0.000, 0.000, 16:30:10.018, 1680381010018
19, 148.89, 212.33, 141.63, 0.00, 0.000, 0.000, 0.000, 16:30:10.019, 1680381010019
20, 423.98, 312.00, 282.30, 0.00, 0.000, 0.000, 0.000, 16:30:10.019, 1680381010019
21, -511.61, -292.70, -265.59, 0.00, 0.000, 0.000, 0.000, 16:30:10.048, 1680381010048
22, -209.32, -32.60, -65.21, 0.00, 0.000, 0.000, 0.000, 16:30:10.048, 1680381010048
23, 618.49, 475.98, 429.66, 0.00, 0.000, 0.000, 0.000, 16:30:10.049, 1680381010049
24, -315.63, -186.59, -156.67, 0.00, 0.000, 0.000, 0.000, 16:30:10.049, 1680381010049
25, -459.44, -216.54, -224.66, 0.00, 0.000, 0.000, 0.000, 16:30:10.050, 1680381010050
26, 482.29, 420.76, 359.77, 0.00, 0.000, 0.000, 0.000, 16:30:10.050, 1680381010050
27, 37.52, 38.23, 41.31, 0.00, 0.000, 0.000, 0.000, 16:30:10.051, 1680381010051
28, -542.19, -293.63, -274.44, 0.00, 0.000, 0.000, 0.000, 16:30:10.051, 1680381010051
29, 149.54, 206.77, 150.52, 0.00, 0.000, 0.000, 0.000, 16:30:10.079, 1680381010079
30, 417.75, 303.95, 271.92, 0.00, 0.000, 0.000, 0.000, 16:30:10.079, 1680381010079
31, -506.33, -292.39, -275.22, 0.00, 0.000, 0.000, 0.000, 16:30:10.079, 1680381010079
32, -207.62, -31.32, -82.36, 0.00, 0.000, 0.000, 0.000, 16:30:10.079, 1680381010079
33, 633.22, 478.98, 420.19, 0.00, 0.000, 0.000, 0.000, 16:30:10.109, 1680381010109
34, -314.94, -192.42, -161.83, 0.00, 0.000, 0.000, 0.000, 16:30:10.109, 1680381010109
35, -450.68, -218.27, -211.67, 0.00, 0.000, 0.000, 0.000, 16:30:10.111, 1680381010111
36, 503.10, 424.85, 381.82, 0.00, 0.000, 0.000, 0.000, 16:30:10.111, 1680381010111
37, 44.01, 42.59, 67.36, 0.00, 0.000, 0.000, 0.000, 16:30:10.112, 1680381010112
38, -548.00, -291.58, -261.63, 0.00, 0.000, 0.000, 0.000, 16:30:10.112, 1680381010112
39, 152.30, 217.56, 159.20, 0.00, 0.000, 0.000, 0.000, 16:30:10.112, 1680381010112
40, 420.18, 308.87, 281.41, 0.00, 0.000, 0.000, 0.000, 16:30:10.112, 1680381010112
41, -514.83, -288.58, -275.18, 0.00, 0.000, 0.000, 0.000, 16:30:10.138, 1680381010138
42, -206.90, -27.22, -84.34, 0.00, 0.000, 0.000, 0.000, 16:30:10.138, 1680381010138
43, 626.35, 484.17, 417.91, 0.00, 0.000, 0.000, 0.000, 16:30:10.139, 1680381010139
44, -314.48, -171.81, -177.59, 0.00, 0.000, 0.000, 0.000, 16:30:10.139, 1680381010139
45, -446.11, -203.22, -237.16, 0.00, 0.000, 0.000, 0.000, 16:30:10.168, 1680381010168
46, 501.10, 431.18, 341.25, 0.00, 0.000, 0.000, 0.000, 16:30:10.168, 1680381010168
47, 39.89, 41.24, 23.59, 0.00, 0.000, 0.000, 0.000, 16:30:10.169, 1680381010169
48, -532.97, -294.21, -282.64, 0.00, 0.000, 0.000, 0.000, 16:30:10.169, 1680381010169
49, 163.51, 216.22, 149.85, 0.00, 0.000, 0.000, 0.000, 16:30:10.170, 1680381010170
50, 426.40, 313.62, 279.38, 0.00, 0.000, 0.000, 0.000, 16:30:10.170, 1680381010170
51, -504.93, -294.78, -268.41, 0.00, 0.000, 0.000, 0.000, 16:30:10.171, 1680381010171
52, -200.67, -26.20, -80.17, 0.00, 0.000, 0.000, 0.000, 16:30:10.171, 1680381010171
53, 612.24, 469.09, 406.91, 0.00, 0.000, 0.000, 0.000, 16:30:10.198, 1680381010198
54, -314.49, -183.15, -186.14, 0.00, 0.000, 0.000, 0.000, 16:30:10.198, 1680381010198
55, -449.55, -207.94, -235.19, 0.00, 0.000, 0.000, 0.000, 16:30:10.205, 1680381010205
56, 494.90, 428.92, 344.86, 0.00, 0.000, 0.000, 0.000, 16:30:10.205, 1680381010205
57, 37.88, 36.95, 32.89, 0.00, 0.000, 0.000, 0.000, 16:30:10.229, 1680381010229
58, -540.34, -297.91, -281.81, 0.00, 0.000, 0.000, 0.000, 16:30:10.229, 1680381010229
59, 153.50, 212.86, 142.70, 0.00, 0.000, 0.000, 0.000, 16:30:10.230, 1680381010230
60, 425.98, 307.18, 278.67, 0.00, 0.000, 0.000, 0.000, 16:30:10.230, 1680381010230
61, -507.00, -291.39, -264.71, 0.00, 0.000, 0.000, 0.000, 16:30:10.231, 1680381010231
62, -200.10, -28.57, -66.23, 0.00, 0.000, 0.000, 0.000, 16:30:10.231, 1680381010231
63, 626.76, 482.37, 430.80, 0.00, 0.000, 0.000, 0.000, 16:30:10.231, 1680381010231
64, -318.94, -192.12, -155.00, 0.00, 0.000, 0.000, 0.000, 16:30:10.231, 1680381010231
65, -435.51, -207.01, -197.60, 0.00, 0.000, 0.000, 0.000, 16:30:10.258, 1680381010258
66, 503.26, 431.57, 374.50, 0.00, 0.000, 0.000, 0.000, 16:30:10.258, 1680381010258
67, 35.88, 32.00, 46.06, 0.00, 0.000, 0.000, 0.000, 16:30:10.259, 1680381010259
68, -534.02, -297.95, -259.08, 0.00, 0.000, 0.000, 0.000, 16:30:10.259, 1680381010259
69, 170.08, 221.12, 173.25, 0.00, 0.000, 0.000, 0.000, 16:30:10.290, 1680381010290
70, 422.32, 300.39, 285.77, 0.00, 0.000, 0.000, 0.000, 16:30:10.290, 1680381010290
71, -504.20, -284.35, -255.00, 0.00, 0.000, 0.000, 0.000, 16:30:10.290, 1680381010290
72, -186.35, -36.67, -56.66, 0.00, 0.000, 0.000, 0.000, 16:30:10.290, 1680381010290
73, 610.74, 471.81, 431.19, 0.00, 0.000, 0.000, 0.000, 16:30:10.291, 1680381010291
74, -316.77, -196.41, -141.51, 0.00, 0.000, 0.000, 0.000, 16:30:10.291, 1680381010291
75, -427.54, -203.02, -199.70, 0.00, 0.000, 0.000, 0.000, 16:30:10.291, 1680381010291
76, 516.58, 437.00, 393.37, 0.00, 0.000, 0.000, 0.000, 16:30:10.291, 1680381010291
77, 58.90, 25.17, 81.34, 0.00, 0.000, 0.000, 0.000, 16:30:10.319, 1680381010319
78, -533.76, -303.20, -231.10, 0.00, 0.000, 0.000, 0.000, 16:30:10.319, 1680381010319
79, 146.01, 208.11, 172.50, 0.00, 0.000, 0.000, 0.000, 16:30:10.319, 1680381010319
80, 379.87, 278.60, 292.01, 0.00, 0.000, 0.000, 0.000, 16:30:10.319, 1680381010319
81, -510.45, -294.86, -253.26, 0.00, 0.000, 0.000, 0.000, 16:30:10.349, 1680381010349
82, -200.41, -38.89, -57.80, 0.00, 0.000, 0.000, 0.000, 16:30:10.349, 1680381010349
83, 599.25, 452.14, 436.92, 0.00, 0.000, 0.000, 0.000, 16:30:10.350, 1680381010350
84, -347.38, -208.97, -157.65, 0.00, 0.000, 0.000, 0.000, 16:30:10.350, 1680381010350
85, -484.27, -221.03, -193.67, 0.00, 0.000, 0.000, 0.000, 16:30:10.350, 1680381010350
86, 478.34, 415.25, 386.87, 0.00, 0.000, 0.000, 0.000, 16:30:10.350, 1680381010350
87, 1.28, 11.32, 45.28, 0.00, 0.000, 0.000, 0.000, 16:30:10.351, 1680381010351
88, -577.07, -305.21, -268.31, 0.00, 0.000, 0.000, 0.000, 16:30:10.351, 1680381010351
89, 145.67, 197.84, 173.94, 0.00, 0.000, 0.000, 0.000, 16:30:10.379, 1680381010379
90, 386.01, 273.97, 270.48, 0.00, 0.000, 0.000, 0.000, 16:30:10.379, 1680381010379
91, -529.78, -302.80, -279.33, 0.00, 0.000, 0.000, 0.000, 16:30:10.380, 1680381010380
92, -195.08, -38.21, -80.39, 0.00, 0.000, 0.000, 0.000, 16:30:10.380, 1680381010380
93, 623.76, 467.48, 396.92, 0.00, 0.000, 0.000, 0.000, 16:30:10.408, 1680381010408
94, -307.75, -201.84, -198.25, 0.00, 0.000, 0.000, 0.000, 16:30:10.408, 1680381010408
95, -419.99, -216.11, -239.81, 0.00, 0.000, 0.000, 0.000, 16:30:10.409, 1680381010409
96, 527.84, 429.65, 324.64, 0.00, 0.000, 0.000, 0.000, 16:30:10.409, 1680381010409
97, 75.95, 37.92, 20.21, 0.00, 0.000, 0.000, 0.000, 16:30:10.410, 1680381010410
98, -490.07, -282.23, -284.70, 0.00, 0.000, 0.000, 0.000, 16:30:10.410, 1680381010410
99, 231.72, 232.39, 165.51, 0.00, 0.000, 0.000, 0.000, 16:30:10.411, 1680381010411
100, 467.12, 304.00, 296.49, 0.00, 0.000, 0.000, 0.000, 16:30:10.411, 1680381010411
101, -447.27, -287.42, -221.14, 0.00, 0.000, 0.000, 0.000, 16:30:10.438, 1680381010438
102, -132.24, -18.51, -25.71, 0.00, 0.000, 0.000, 0.000, 16:30:10.438, 1680381010438
103, 681.78, 477.32, 454.97, 0.00, 0.000, 0.000, 0.000, 16:30:10.439, 1680381010439
104, -280.44, -187.55, -141.71, 0.00, 0.000, 0.000, 0.000, 16:30:10.439, 1680381010439
105, -398.33, -197.94, -204.34, 0.00, 0.000, 0.000, 0.000, 16:30:10.468, 1680381010468
106, 567.96, 453.68, 374.84, 0.00, 0.000, 0.000, 0.000, 16:30:10.468, 1680381010468
107, 72.74, 38.56, 25.21, 0.00, 0.000, 0.000, 0.000, 16:30:10.469, 1680381010469
108, -486.53, -276.46, -275.53, 0.00, 0.000, 0.000, 0.000, 16:30:10.469, 1680381010469
109, 227.27, 245.84, 161.06, 0.00, 0.000, 0.000, 0.000, 16:30:10.470, 1680381010470
110, 436.51, 308.65, 261.48, 0.00, 0.000, 0.000, 0.000, 16:30:10.470, 1680381010470
111, -483.55, -282.87, -269.33, 0.00, 0.000, 0.000, 0.000, 16:30:10.471, 1680381010471
112, -143.38, 2.16, -60.64, 0.00, 0.000, 0.000, 0.000, 16:30:10.471, 1680381010471
113, 659.92, 511.52, 416.99, 0.00, 0.000, 0.000, 0.000, 16:30:10.498, 1680381010498
114, -315.48, -168.43, -195.82, 0.00, 0.000, 0.000, 0.000, 16:30:10.498, 1680381010498
115, -444.39, -184.74, -238.10, 0.00, 0.000, 0.000, 0.000, 16:30:10.499, 1680381010499
116, 497.61, 436.08, 354.48, 0.00, 0.000, 0.000, 0.000, 16:30:10.499, 1680381010499
117, -10.92, -11.69, 17.68, 0.00, 0.000, 0.000, 0.000, 16:30:10.528, 1680381010528
118, -572.79, -334.65, -287.97, 0.00, 0.000, 0.000, 0.000, 16:30:10.528, 1680381010528
119, 162.94, 186.98, 162.23, 0.00, 0.000, 0.000, 0.000, 16:30:10.529, 1680381010529
120, 410.03, 260.76, 266.94, 0.00, 0.000, 0.000, 0.000, 16:30:10.529, 1680381010529
121, -502.57, -317.66, -287.74, 0.00, 0.000, 0.000, 0.000, 16:30:10.530, 1680381010530
122, -175.97, -35.85, -85.31, 0.00, 0.000, 0.000, 0.000, 16:30:10.530, 1680381010530
123, 633.65, 469.67, 390.63, 0.00, 0.000, 0.000, 0.000, 16:30:10.531, 1680381010531
124, -326.30, -201.52, -236.47, 0.00, 0.000, 0.000, 0.000, 16:30:10.531, 1680381010531
125, -432.21, -219.52, -280.64, 0.00, 0.000, 0.000, 0.000, 16:30:10.559, 1680381010559
126, 522.22, 431.20, 307.05, 0.00, 0.000, 0.000, 0.000, 16:30:10.559, 1680381010559
127, 24.17, 16.86, -23.27, 0.00, 0.000, 0.000, 0.000, 16:30:10.560, 1680381010560
128, -523.30, -298.96, -301.93, 0.00, 0.000, 0.000, 0.000, 16:30:10.560, 1680381010560
129, 209.70, 226.72, 159.21, 0.00, 0.000, 0.000, 0.000, 16:30:10.589, 1680381010589
130, 412.44, 288.78, 278.58, 0.00, 0.000, 0.000, 0.000, 16:30:10.589, 1680381010589
131, -497.62, -292.70, -254.91, 0.00, 0.000, 0.000, 0.000, 16:30:10.589, 1680381010589
132, -168.82, -14.56, -44.43, 0.00, 0.000, 0.000, 0.000, 16:30:10.589, 1680381010589
133, 632.87, 466.00, 420.94, 0.00, 0.000, 0.000, 0.000, 16:30:10.590, 1680381010590
134, -314.93, -203.98, -200.21, 0.00, 0.000, 0.000, 0.000, 16:30:10.590, 1680381010590
135, -432.41, -212.63, -270.42, 0.00, 0.000, 0.000, 0.000, 16:30:10.596, 1680381010596
136, 518.69, 431.14, 295.09, 0.00, 0.000, 0.000, 0.000, 16:30:10.596, 1680381010596
137, 31.63, 19.96, -9.24, 0.00, 0.000, 0.000, 0.000, 16:30:10.619, 1680381010619
138, -521.07, -291.54, -271.02, 0.00, 0.000, 0.000, 0.000, 16:30:10.619, 1680381010619
139, 180.45, 224.41, 204.06, 0.00, 0.000, 0.000, 0.000, 16:30:10.619, 1680381010619
140, 385.78, 284.53, 324.79, 0.00, 0.000, 0.000, 0.000, 16:30:10.619, 1680381010619
141, -532.71, -301.95, -218.54, 0.00, 0.000, 0.000, 0.000, 16:30:10.648, 1680381010648
142, -196.05, -28.03, -43.02, 0.00, 0.000, 0.000, 0.000, 16:30:10.648, 1680381010648
143, 598.61, 461.94, 392.44, 0.00, 0.000, 0.000, 0.000, 16:30:10.649, 1680381010649
144, -339.39, -206.87, -232.54, 0.00, 0.000, 0.000, 0.000, 16:30:10.649, 1680381010649
145, -449.10, -212.78, -309.31, 0.00, 0.000, 0.000, 0.000, 16:30:10.650, 1680381010650
146, 505.47, 428.71, 269.64, 0.00, 0.000, 0.000, 0.000, 16:30:10.650, 1680381010650
147, 15.45, 13.11, -58.81, 0.00, 0.000, 0.000, 0.000, 16:30:10.651, 1680381010651
148, -522.67, -286.59, -323.66, 0.00, 0.000, 0.000, 0.000, 16:30:10.651, 1680381010651
149, 190.02, 229.67, 133.16, 0.00, 0.000, 0.000, 0.000, 16:30:10.678, 1680381010678
150, 398.52, 275.95, 242.16, 0.00, 0.000, 0.000, 0.000, 16:30:10.678, 1680381010678
151, -515.31, -302.75, -278.55, 0.00, 0.000, 0.000, 0.000, 16:30:10.679, 1680381010679
152, -178.29, -17.24, -51.26, 0.00, 0.000, 0.000, 0.000, 16:30:10.679, 1680381010679
153, 622.09, 467.55, 440.14, 0.00, 0.000, 0.000, 0.000, 16:30:10.709, 1680381010709
154, -340.69, -211.00, -158.27, 0.00, 0.000, 0.000, 0.000, 16:30:10.709, 1680381010709
155, -447.22, -212.58, -201.18, 0.00, 0.000, 0.000, 0.000, 16:30:10.709, 1680381010709
156, 507.84, 432.53, 375.11, 0.00, 0.000, 0.000, 0.000, 16:30:10.709, 1680381010709
157, 2.14, 16.37, 9.84, 0.00, 0.000, 0.000, 0.000, 16:30:10.710, 1680381010710
158, -538.23, -285.72, -298.93, 0.00, 0.000, 0.000, 0.000, 16:30:10.710, 1680381010710
159, 169.93, 229.94, 122.42, 0.00, 0.000, 0.000, 0.000, 16:30:10.711, 1680381010711
160, 390.88, 295.88, 225.07, 0.00, 0.000, 0.000, 0.000, 16:30:10.711, 1680381010711
161, -521.68, -292.30, -295.95, 0.00, 0.000, 0.000, 0.000, 16:30:10.740, 1680381010740
162, -177.04, -6.82, -72.96, 0.00, 0.000, 0.000, 0.000, 16:30:10.740, 1680381010740
163, 619.92, 469.37, 407.39, 0.00, 0.000, 0.000, 0.000, 16:30:10.740, 1680381010740
164, -326.81, -199.26, -174.44, 0.00, 0.000, 0.000, 0.000, 16:30:10.740, 1680381010740
165, -424.89, -197.49, -194.82, 0.00, 0.000, 0.000, 0.000, 16:30:10.768, 1680381010768
166, 527.22, 439.11, 392.07, 0.00, 0.000, 0.000, 0.000, 16:30:10.768, 1680381010768
167, 20.67, 17.65, 40.38, 0.00, 0.000, 0.000, 0.000, 16:30:10.769, 1680381010769
168, -532.24, -288.73, -268.99, 0.00, 0.000, 0.000, 0.000, 16:30:10.769, 1680381010769
169, 187.11, 234.08, 171.53, 0.00, 0.000, 0.000, 0.000, 16:30:10.770, 1680381010770
170, 402.35, 286.21, 259.26, 0.00, 0.000, 0.000, 0.000, 16:30:10.770, 1680381010770
171, -508.87, -297.20, -284.13, 0.00, 0.000, 0.000, 0.000, 16:30:10.771, 1680381010771
172, -174.57, -18.18, -77.79, 0.00, 0.000, 0.000, 0.000, 16:30:10.771, 1680381010771
173, 612.02, 457.93, 394.97, 0.00, 0.000, 0.000, 0.000, 16:30:10.799, 1680381010799
174, -332.79, -209.28, -186.13, 0.00, 0.000, 0.000, 0.000, 16:30:10.799, 1680381010799
175, -430.10, -202.73, -212.16, 0.00, 0.000, 0.000, 0.000, 16:30:10.799, 1680381010799
176, 520.81, 431.30, 374.70, 0.00, 0.000, 0.000, 0.000, 16:30:10.799, 1680381010799
177, 0.29, 9.80, 24.19, 0.00, 0.000, 0.000, 0.000, 16:30:10.828, 1680381010828
178, -553.99, -298.14, -273.29, 0.00, 0.000, 0.000, 0.000, 16:30:10.828, 1680381010828
179, 170.14, 225.80, 168.33, 0.00, 0.000, 0.000, 0.000, 16:30:10.829, 1680381010829
180, 379.06, 272.33, 257.30, 0.00, 0.000, 0.000, 0.000, 16:30:10.829, 1680381010829
181, -527.37, -307.38, -279.19, 0.00, 0.000, 0.000, 0.000, 16:30:10.830, 1680381010830
182, -183.04, -16.58, -73.18, 0.00, 0.000, 0.000, 0.000, 16:30:10.830, 1680381010830
183, 614.25, 465.91, 399.59, 0.00, 0.000, 0.000, 0.000, 16:30:10.831, 1680381010831
184, -346.07, -212.84, -211.65, 0.00, 0.000, 0.000, 0.000, 16:30:10.831, 1680381010831
185, -434.60, -208.48, -244.34, 0.00, 0.000, 0.000, 0.000, 16:30:10.858, 1680381010858
186, 517.82, 439.67, 340.31, 0.00, 0.000, 0.000, 0.000, 16:30:10.858, 1680381010858
187, 13.90, 12.21, -3.28, 0.00, 0.000, 0.000, 0.000, 16:30:10.859, 1680381010859
188, -527.97, -291.28, -293.03, 0.00, 0.000, 0.000, 0.000, 16:30:10.859, 1680381010859
189, 197.57, 236.59, 169.77, 0.00, 0.000, 0.000, 0.000, 16:30:10.888, 1680381010888
190, 395.09, 278.17, 261.52, 0.00, 0.000, 0.000, 0.000, 16:30:10.888, 1680381010888
191, -513.90, -302.27, -271.48, 0.00, 0.000, 0.000, 0.000, 16:30:10.889, 1680381010889
192, -180.46, -18.21, -58.10, 0.00, 0.000, 0.000, 0.000, 16:30:10.889, 1680381010889
193, 609.59, 462.77, 397.10, 0.00, 0.000, 0.000, 0.000, 16:30:10.890, 1680381010890
194, -341.78, -210.18, -212.66, 0.00, 0.000, 0.000, 0.000, 16:30:10.890, 1680381010890
195, -426.45, -195.95, -241.64, 0.00, 0.000, 0.000, 0.000, 16:30:10.891, 1680381010891
196, 525.58, 438.02, 346.75, 0.00, 0.000, 0.000, 0.000, 16:30:10.891, 1680381010891
197, -2.44, 9.18, -13.03, 0.00, 0.000, 0.000, 0.000, 16:30:10.918, 1680381010918
198, -532.06, -280.47, -299.78, 0.00, 0.000, 0.000, 0.000, 16:30:10.918, 1680381010918
199, 199.25, 240.44, 150.79, 0.00, 0.000, 0.000, 0.000, 16:30:10.919, 1680381010919
200, 399.46, 286.13, 228.62, 0.00, 0.000, 0.000, 0.000, 16:30:10.919, 1680381010919
0, -505.63, -295.49, -290.27, 0.00, 0.000, 0.000, 0.000, 16:30:10.920, 1680381010920
