%OpenBCI Raw EEG Data
%Number of channels = 4
%Sample Rate = 200.0 Hz
%First Column = SampleIndex
%Last Column = Timestamp 
%Other Columns = EEG data in microvolts followed by Accel Data (in G) interleaved with Aux Data
0, 56.06, 55.11, 68.57, 0.00, 0.000, 0.000, 0.000, 16:29:03.506, 1680380943506
1, -501.97, -257.68, -238.78, 0.00, 0.000, 0.000, 0.000, 16:29:03.507, 1680380943507
2, 98.18, 158.89, 101.88, 0.00, 0.000, 0.000, 0.000, 16:29:03.507, 1680380943507
3, 394.91, 286.63, 255.73, 0.00, 0.000, 0.000, 0.000, 16:29:03.536, 1680380943536
4, -467.34, -250.74, -229.94, 0.00, 0.000, 0.000, 0.000, 16:29:03.536, 1680380943536
5, -229.43, -49.65, -83.30, 0.00, 0.000, 0.000, 0.000, 16:29:03.537, 1680380943537
6, 562.43, 422.76, 363.37, 0.00, 0.000, 0.000, 0.000, 16:29:03.537, 1680380943537
7, -265.22, -150.17, -136.70, 0.00, 0.000, 0.000, 0.000, 16:29:03.538, 1680380943538
8, -426.14, -196.89, -207.61, 0.00, 0.000, 0.000, 0.000, 16:29:03.538, 1680380943538
9, 420.15, 351.82, 284.32, 0.00, 0.000, 0.000, 0.000, 16:29:03.539, 1680380943539
10, 69.46, 56.48, 37.47, 0.00, 0.000, 0.000, 0.000, 16:29:03.539, 1680380943539
11, -490.12, -259.89, -257.68, 0.00, 0.000, 0.000, 0.000, 16:29:03.566, 1680380943566
12, 102.91, 153.20, 85.83, 0.00, 0.000, 0.000, 0.000, 16:29:03.566, 1680380943566
13, 397.13, 275.91, 243.24, 0.00, 0.000, 0.000, 0.000, 16:29:03.567, 1680380943567
14, -456.76, -256.49, -228.18, 0.00, 0.000, 0.000, 0.000, 16:29:03.567, 1680380943567
15, -227.15, -55.99, -68.32, 0.00, 0.000, 0.000, 0.000, 16:29:03.596, 1680380943596
16, 554.08, 407.67, 392.97, 0.00, 0.000, 0.000, 0.000, 16:29:03.596, 1680380943596
17, -274.88, -149.53, -120.21, 0.00, 0.000, 0.000, 0.000, 16:29:03.597, 1680380943597
18, -433.79, -198.68, -219.15, 0.00, 0.000, 0.000, 0.000, 16:29:03.597, 1680380943597
19, 418.38, 354.98, 267.66, 0.00, 0.000, 0.000, 0.000, 16:29:03.598, 1680380943598
20, 56.24, 53.83, 28.26, 0.00, 0.000, 0.000, 0.000, 16:29:03.598, 1680380943598
21, -510.77, -262.26, -263.48, 0.00, 0.000, 0.000, 0.000, 16:29:03.599, 1680380943599
22, 100.54, 164.17, 93.06, 0.00, 0.000, 0.000, 0.000, 16:29:03.599, 1680380943599
23, 407.11, 286.49, 244.80, 0.00, 0.000, 0.000, 0.000, 16:29:03.626, 1680380943626
24, -466.46, -259.05, -237.20, 0.00, 0.000, 0.000, 0.000, 16:29:03.626, 1680380943626
25, -219.66, -54.79, -94.56, 0.00, 0.000, 0.000, 0.000, 16:29:03.627, 1680380943627
26, 578.76, 430.98, 378.55, 0.00, 0.000, 0.000, 0.000, 16:29:03.627, 1680380943627
27, -288.21, -172.05, -123.84, 0.00, 0.000, 0.000, 0.000, 16:29:03.656, 1680380943656
28, -451.19, -209.71, -199.68, 0.00, 0.000, 0.000, 0.000, 16:29:03.656, 1680380943656
29, 466.79, 381.24, 311.11, 0.00, 0.000, 0.000, 0.000, 16:29:03.657, 1680380943657
30, 68.09, 49.97, 51.89, 0.00, 0.000, 0.000, 0.000, 16:29:03.657, 1680380943657
31, -536.82, -283.35, -277.87, 0.00, 0.000, 0.000, 0.000, 16:29:03.658, 1680380943658
32, 124.84, 174.33, 80.71, 0.00, 0.000, 0.000, 0.000, 16:29:03.658, 1680380943658
33, 444.41, 308.36, 252.97, 0.00, 0.000, 0.000, 0.000, 16:29:03.659, 1680380943659
34, -500.98, -274.75, -251.87, 0.00, 0.000, 0.000, 0.000, 16:29:03.659, 1680380943659
35, -236.02, -49.95, -92.99, 0.00, 0.000, 0.000, 0.000, 16:29:03.686, 1680380943686
36, 617.73, 454.03, 396.84, 0.00, 0.000, 0.000, 0.000, 16:29:03.686, 1680380943686
37, -287.22, -161.65, -114.18, 0.00, 0.000, 0.000, 0.000, 16:29:03.687, 1680380943687
38, -456.28, -207.06, -198.40, 0.00, 0.000, 0.000, 0.000, 16:29:03.687, 1680380943687
39, 480.69, 391.67, 320.97, 0.00, 0.000, 0.000, 0.000, 16:29:03.716, 1680380943716
40, 62.45, 53.87, 60.82, 0.00, 0.000, 0.000, 0.000, 16:29:03.716, 1680380943716
41, -546.10, -282.13, -264.15, 0.00, 0.000, 0.000, 0.000, 16:29:03.717, 1680380943717
42, 130.80, 187.16, 103.68, 0.00, 0.000, 0.000, 0.000, 16:29:03.717, 1680380943717
43, 454.77, 314.10, 267.10, 0.00, 0.000, 0.000, 0.000, 16:29:03.718, 1680380943718
44, -493.64, -273.90, -246.05, 0.00, 0.000, 0.000, 0.000, 16:29:03.718, 1680380943718
45, -219.28, -45.65, -94.89, 0.00, 0.000, 0.000, 0.000, 16:29:03.719, 1680380943719
46, 634.69, 463.67, 392.96, 0.00, 0.000, 0.000, 0.000, 16:29:03.719, 1680380943719
47, -293.77, -163.28, -130.71, 0.00, 0.000, 0.000, 0.000, 16:29:03.746, 1680380943746
48, -463.38, -205.55, -212.58, 0.00, 0.000, 0.000, 0.000, 16:29:03.746, 1680380943746
49, 495.26, 404.72, 323.59, 0.00, 0.000, 0.000, 0.000, 16:29:03.747, 1680380943747
50, 68.22, 62.48, 69.69, 0.00, 0.000, 0.000, 0.000, 16:29:03.747, 1680380943747
51, -547.84, -282.87, -249.43, 0.00, 0.000, 0.000, 0.000, 16:29:03.776, 1680380943776
52, 131.06, 191.19, 122.00, 0.00, 0.000, 0.000, 0.000, 16:29:03.776, 1680380943776
53, 440.79, 311.47, 283.18, 0.00, 0.000, 0.000, 0.000, 16:29:03.777, 1680380943777
54, -506.91, -271.45, -233.69, 0.00, 0.000, 0.000, 0.000, 16:29:03.777, 1680380943777
55, -230.07, -46.41, -92.27, 0.00, 0.000, 0.000, 0.000, 16:29:03.778, 1680380943778
56, 612.85, 450.87, 379.77, 0.00, 0.000, 0.000, 0.000, 16:29:03.778, 1680380943778
57, -314.30, -173.57, -147.82, 0.00, 0.000, 0.000, 0.000, 16:29:03.779, 1680380943779
58, -478.59, -222.73, -232.29, 0.00, 0.000, 0.000, 0.000, 16:29:03.779, 1680380943779
59, 468.49, 386.70, 304.72, 0.00, 0.000, 0.000, 0.000, 16:29:03.806, 1680380943806
60, 55.83, 46.86, 53.04, 0.00, 0.000, 0.000, 0.000, 16:29:03.806, 1680380943806
61, -555.80, -287.10, -268.21, 0.00, 0.000, 0.000, 0.000, 16:29:03.814, 1680380943814
62, 122.79, 179.47, 105.20, 0.00, 0.000, 0.000, 0.000, 16:29:03.814, 1680380943814
63, 435.04, 301.48, 265.92, 0.00, 0.000, 0.000, 0.000, 16:29:03.836, 1680380943836
64, -501.08, -276.61, -248.45, 0.00, 0.000, 0.000, 0.000, 16:29:03.836, 1680380943836
65, -231.03, -56.90, -100.35, 0.00, 0.000, 0.000, 0.000, 16:29:03.837, 1680380943837
66, 621.95, 450.26, 380.83, 0.00, 0.000, 0.000, 0.000, 16:29:03.837, 1680380943837
67, -306.10, -169.74, -137.66, 0.00, 0.000, 0.000, 0.000, 16:29:03.838, 1680380943838
68, -461.49, -208.28, -214.29, 0.00, 0.000, 0.000, 0.000, 16:29:03.838, 1680380943838
69, 473.72, 395.05, 312.64, 0.00, 0.000, 0.000, 0.000, 16:29:03.839, 1680380943839
70, 53.84, 53.80, 56.04, 0.00, 0.000, 0.000, 0.000, 16:29:03.839, 1680380943839
71, -550.40, -280.28, -264.18, 0.00, 0.000, 0.000, 0.000, 16:29:03.866, 1680380943866
72, 126.82, 183.40, 108.55, 0.00, 0.000, 0.000, 0.000, 16:29:03.866, 1680380943866
73, 434.76, 305.83, 270.35, 0.00, 0.000, 0.000, 0.000, 16:29:03.867, 1680380943867
74, -505.69, -279.69, -243.55, 0.00, 0.000, 0.000, 0.000, 16:29:03.867, 1680380943867
75, -225.45, -48.97, -93.31, 0.00, 0.000, 0.000, 0.000, 16:29:03.896, 1680380943896
76, 619.11, 451.36, 380.93, 0.00, 0.000, 0.000, 0.000, 16:29:03.896, 1680380943896
77, -299.66, -173.25, -139.84, 0.00, 0.000, 0.000, 0.000, 16:29:03.897, 1680380943897
78, -461.40, -209.91, -218.16, 0.00, 0.000, 0.000, 0.000, 16:29:03.897, 1680380943897
79, 492.08, 392.73, 317.51, 0.00, 0.000, 0.000, 0.000, 16:29:03.898, 1680380943898
80, 55.85, 46.45, 53.53, 0.00, 0.000, 0.000, 0.000, 16:29:03.898, 1680380943898
81, -552.43, -290.25, -266.15, 0.00, 0.000, 0.000, 0.000, 16:29:03.899, 1680380943899
82, 118.29, 179.71, 105.13, 0.00, 0.000, 0.000, 0.000, 16:29:03.899, 1680380943899
83, 427.27, 299.68, 268.69, 0.00, 0.000, 0.000, 0.000, 16:29:03.926, 1680380943926
84, -502.07, -276.58, -239.25, 0.00, 0.000, 0.000, 0.000, 16:29:03.926, 1680380943926
85, -226.96, -44.97, -87.83, 0.00, 0.000, 0.000, 0.000, 16:29:03.927, 1680380943927
86, 607.60, 446.22, 388.51, 0.00, 0.000, 0.000, 0.000, 16:29:03.927, 1680380943927
87, -300.18, -171.61, -138.86, 0.00, 0.000, 0.000, 0.000, 16:29:03.956, 1680380943956
88, -457.38, -207.50, -214.83, 0.00, 0.000, 0.000, 0.000, 16:29:03.956, 1680380943956
89, 479.57, 391.68, 309.50, 0.00, 0.000, 0.000, 0.000, 16:29:03.957, 1680380943957
90, 48.92, 48.98, 52.97, 0.00, 0.000, 0.000, 0.000, 16:29:03.957, 1680380943957
91, -539.28, -279.85, -254.12, 0.00, 0.000, 0.000, 0.000, 16:29:03.958, 1680380943958
92, 138.02, 187.55, 117.66, 0.00, 0.000, 0.000, 0.000, 16:29:03.958, 1680380943958
93, 440.81, 303.31, 276.22, 0.00, 0.000, 0.000, 0.000, 16:29:03.959, 1680380943959
94, -493.98, -276.57, -236.13, 0.00, 0.000, 0.000, 0.000, 16:29:03.959, 1680380943959
95, -218.53, -44.57, -85.31, 0.00, 0.000, 0.000, 0.000, 16:29:03.987, 1680380943987
96, 628.51, 457.45, 395.68, 0.00, 0.000, 0.000, 0.000, 16:29:03.987, 1680380943987
97, -291.54, -167.95, -133.03, 0.00, 0.000, 0.000, 0.000, 16:29:03.988, 1680380943988
98, -443.01, -200.07, -207.39, 0.00, 0.000, 0.000, 0.000, 16:29:03.988, 1680380943988
99, 491.08, 401.78, 320.20, 0.00, 0.000, 0.000, 0.000, 16:29:04.016, 1680380944016
100, 60.80, 56.19, 57.61, 0.00, 0.000, 0.000, 0.000, 16:29:04.016, 1680380944016
101, -531.65, -276.10, -256.35, 0.00, 0.000, 0.000, 0.000, 16:29:04.017, 1680380944017
102, 146.84, 191.74, 119.64, 0.00, 0.000, 0.000, 0.000, 16:29:04.017, 1680380944017
103, 442.98, 305.68, 273.59, 0.00, 0.000, 0.000, 0.000, 16:29:04.018, 1680380944018
104, -491.49, -266.89, -233.29, 0.00, 0.000, 0.000, 0.000, 16:29:04.018, 1680380944018
105, -206.16, -41.19, -79.24, 0.00, 0.000, 0.000, 0.000, 16:29:04.019, 1680380944019
106, 636.04, 457.74, 401.68, 0.00, 0.000, 0.000, 0.000, 16:29:04.019, 1680380944019
107, -287.94, -152.96, -134.05, 0.00, 0.000, 0.000, 0.000, 16:29:04.046, 1680380944046
108, -451.83, -192.88, -221.80, 0.00, 0.000, 0.000, 0.000, 16:29:04.046, 1680380944046
109, 474.66, 411.17, 297.20, 0.00, 0.000, 0.000, 0.000, 16:29:04.047, 1680380944047
110, 33.34, 66.25, 20.83, 0.00, 0.000, 0.000, 0.000, 16:29:04.047, 1680380944047
111, -568.37, -280.90, -291.20, 0.00, 0.000, 0.000, 0.000, 16:29:04.076, 1680380944076
112, 105.81, 155.85, 92.19, 0.00, 0.000, 0.000, 0.000, 16:29:04.076, 1680380944076
113, 406.54, 263.01, 257.39, 0.00, 0.000, 0.000, 0.000, 16:29:04.077, 1680380944077
114, -503.65, -299.98, -232.83, 0.00, 0.000, 0.000, 0.000, 16:29:04.077, 1680380944077
115, -207.44, -52.14, -70.39, 0.00, 0.000, 0.000, 0.000, 16:29:04.078, 1680380944078
116, 635.65, 448.65, 401.40, 0.00, 0.000, 0.000, 0.000, 16:29:04.078, 1680380944078
117, -278.16, -164.72, -124.42, 0.00, 0.000, 0.000, 0.000, 16:29:04.079, 1680380944079
118, -439.25, -199.38, -202.46, 0.00, 0.000, 0.000, 0.000, 16:29:04.079, 1680380944079
119, 488.36, 395.43, 317.66, 0.00, 0.000, 0.000, 0.000, 16:29:04.106, 1680380944106
120, 49.48, 43.27, 52.24, 0.00, 0.000, 0.000, 0.000, 16:29:04.106, 1680380944106
121, -549.03, -295.33, -278.20, 0.00, 0.000, 0.000, 0.000, 16:29:04.114, 1680380944114
122, 119.87, 180.61, 106.90, 0.00, 0.000, 0.000, 0.000, 16:29:04.114, 1680380944114
123, 408.63, 294.61, 262.35, 0.00, 0.000, 0.000, 0.000, 16:29:04.136, 1680380944136
124, -510.95, -271.63, -239.23, 0.00, 0.000, 0.000, 0.000, 16:29:04.136, 1680380944136
125, -229.27, -46.30, -89.78, 0.00, 0.000, 0.000, 0.000, 16:29:04.138, 1680380944138
126, 603.32, 438.92, 386.87, 0.00, 0.000, 0.000, 0.000, 16:29:04.138, 1680380944138
127, -307.99, -176.16, -135.91, 0.00, 0.000, 0.000, 0.000, 16:29:04.138, 1680380944138
128, -456.39, -208.50, -219.94, 0.00, 0.000, 0.000, 0.000, 16:29:04.138, 1680380944138
129, 488.39, 394.96, 301.59, 0.00, 0.000, 0.000, 0.000, 16:29:04.139, 1680380944139
130, 43.68, 42.39, 24.25, 0.00, 0.000, 0.000, 0.000, 16:29:04.139, 1680380944139
131, -542.19, -278.00, -280.54, 0.00, 0.000, 0.000, 0.000, 16:29:04.166, 1680380944166
132, 136.92, 188.96, 130.80, 0.00, 0.000, 0.000, 0.000, 16:29:04.166, 1680380944166
133, 427.08, 293.41, 304.88, 0.00, 0.000, 0.000, 0.000, 16:29:04.167, 1680380944167
134, -499.66, -273.75, -171.28, 0.00, 0.000, 0.000, 0.000, 16:29:04.167, 1680380944167
135, -227.50, -40.98, -12.37, 0.00, 0.000, 0.000, 0.000, 16:29:04.196, 1680380944196
136, 596.01, 443.22, 428.55, 0.00, 0.000, 0.000, 0.000, 16:29:04.196, 1680380944196
137, -315.20, -176.90, -135.05, 0.00, 0.000, 0.000, 0.000, 16:29:04.197, 1680380944197
138, -464.40, -217.71, -258.95, 0.00, 0.000, 0.000, 0.000, 16:29:04.197, 1680380944197
139, 482.76, 395.59, 254.10, 0.00, 0.000, 0.000, 0.000, 16:29:04.198, 1680380944198
140, 44.16, 44.38, -5.70, 0.00, 0.000, 0.000, 0.000, 16:29:04.198, 1680380944198
141, -547.11, -279.84, -297.87, 0.00, 0.000, 0.000, 0.000, 16:29:04.199, 1680380944199
142, 145.01, 191.99, 107.60, 0.00, 0.000, 0.000, 0.000, 16:29:04.199, 1680380944199
143, 421.36, 294.39, 280.78, 0.00, 0.000, 0.000, 0.000, 16:29:04.226, 1680380944226
144, -506.52, -281.35, -210.94, 0.00, 0.000, 0.000, 0.000, 16:29:04.226, 1680380944226
145, -222.93, -49.40, -59.81, 0.00, 0.000, 0.000, 0.000, 16:29:04.227, 1680380944227
146, 603.68, 441.65, 405.05, 0.00, 0.000, 0.000, 0.000, 16:29:04.227, 1680380944227
147, -317.45, -175.61, -136.88, 0.00, 0.000, 0.000, 0.000, 16:29:04.256, 1680380944256
148, -469.02, -211.55, -225.89, 0.00, 0.000, 0.000, 0.000, 16:29:04.256, 1680380944256
149, 467.83, 392.41, 298.73, 0.00, 0.000, 0.000, 0.000, 16:29:04.257, 1680380944257
150, 33.47, 37.37, 26.36, 0.00, 0.000, 0.000, 0.000, 16:29:04.257, 1680380944257
151, -557.82, -286.01, -281.23, 0.00, 0.000, 0.000, 0.000, 16:29:04.258, 1680380944258
152, 129.58, 187.12, 96.95, 0.00, 0.000, 0.000, 0.000, 16:29:04.258, 1680380944258
153, 408.65, 293.23, 246.31, 0.00, 0.000, 0.000, 0.000, 16:29:04.259, 1680380944259
154, -509.92, -275.31, -245.17, 0.00, 0.000, 0.000, 0.000, 16:29:04.259, 1680380944259
155, -217.88, -43.09, -77.95, 0.00, 0.000, 0.000, 0.000, 16:29:04.286, 1680380944286
156, 610.28, 445.62, 394.91, 0.00, 0.000, 0.000, 0.000, 16:29:04.286, 1680380944286
157, -310.66, -172.41, -130.96, 0.00, 0.000, 0.000, 0.000, 16:29:04.287, 1680380944287
158, -449.69, -203.45, -201.42, 0.00, 0.000, 0.000, 0.000, 16:29:04.287, 1680380944287
159, 487.60, 392.96, 318.66, 0.00, 0.000, 0.000, 0.000, 16:29:04.316, 1680380944316
160, 48.36, 38.49, 35.91, 0.00, 0.000, 0.000, 0.000, 16:29:04.316, 1680380944316
161, -527.92, -271.33, -268.95, 0.00, 0.000, 0.000, 0.000, 16:29:04.317, 1680380944317
162, 156.55, 195.69, 106.09, 0.00, 0.000, 0.000, 0.000, 16:29:04.317, 1680380944317
163, 428.98, 295.73, 252.19, 0.00, 0.000, 0.000, 0.000, 16:29:04.318, 1680380944318
164, -489.39, -274.30, -244.57, 0.00, 0.000, 0.000, 0.000, 16:29:04.318, 1680380944318
165, -205.66, -36.25, -81.97, 0.00, 0.000, 0.000, 0.000, 16:29:04.319, 1680380944319
166, 615.77, 445.68, 391.03, 0.00, 0.000, 0.000, 0.000, 16:29:04.319, 1680380944319
167, -306.58, -166.38, -133.50, 0.00, 0.000, 0.000, 0.000, 16:29:04.346, 1680380944346
168, -450.97, -204.71, -202.62, 0.00, 0.000, 0.000, 0.000, 16:29:04.346, 1680380944346
169, 485.94, 395.82, 332.08, 0.00, 0.000, 0.000, 0.000, 16:29:04.347, 1680380944347
170, 41.60, 42.51, 62.00, 0.00, 0.000, 0.000, 0.000, 16:29:04.347, 1680380944347
171, -539.53, -278.26, -247.46, 0.00, 0.000, 0.000, 0.000, 16:29:04.376, 1680380944376
172, 139.26, 189.38, 122.47, 0.00, 0.000, 0.000, 0.000, 16:29:04.376, 1680380944376
173, 417.01, 288.09, 260.59, 0.00, 0.000, 0.000, 0.000, 16:29:04.377, 1680380944377
174, -499.45, -277.09, -242.87, 0.00, 0.000, 0.000, 0.000, 16:29:04.377, 1680380944377
175, -213.98, -34.80, -86.03, 0.00, 0.000, 0.000, 0.000, 16:29:04.378, 1680380944378
176, 621.16, 453.49, 380.92, 0.00, 0.000, 0.000, 0.000, 16:29:04.378, 1680380944378
177, -298.64, -171.94, -142.92, 0.00, 0.000, 0.000, 0.000, 16:29:04.379, 1680380944379
178, -448.08, -204.68, -219.91, 0.00, 0.000, 0.000, 0.000, 16:29:04.379, 1680380944379
179, 493.79, 400.76, 312.85, 0.00, 0.000, 0.000, 0.000, 16:29:04.406, 1680380944406
180, 51.09, 37.80, 37.79, 0.00, 0.000, 0.000, 0.000, 16:29:04.406, 1680380944406
181, -537.50, -280.86, -272.64, 0.00, 0.000, 0.000, 0.000, 16:29:04.408, 1680380944408
182, 150.42, 194.14, 113.56, 0.00, 0.000, 0.000, 0.000, 16:29:04.408, 1680380944408
183, 420.58, 287.79, 260.45, 0.00, 0.000, 0.000, 0.000, 16:29:04.436, 1680380944436
184, -501.98, -281.00, -228.69, 0.00, 0.000, 0.000, 0.000, 16:29:04.436, 1680380944436
185, -220.27, -42.81, -59.83, 0.00, 0.000, 0.000, 0.000, 16:29:04.437, 1680380944437
186, 606.07, 439.20, 417.93, 0.00, 0.000, 0.000, 0.000, 16:29:04.437, 1680380944437
187, -314.40, -177.40, -121.36, 0.00, 0.000, 0.000, 0.000, 16:29:04.439, 1680380944439
188, -462.07, -208.99, -222.04, 0.00, 0.000, 0.000, 0.000, 16:29:04.439, 1680380944439
189, 483.52, 401.19, 293.21, 0.00, 0.000, 0.000, 0.000, 16:29:04.439, 1680380944439
190, 42.17, 44.71, 22.70, 0.00, 0.000, 0.000, 0.000, 16:29:04.439, 1680380944439
191, -537.03, -274.00, -276.66, 0.00, 0.000, 0.000, 0.000, 16:29:04.466, 1680380944466
192, 150.43, 196.55, 114.31, 0.00, 0.000, 0.000, 0.000, 16:29:04.466, 1680380944466
193, 416.08, 288.68, 253.86, 0.00, 0.000, 0.000, 0.000, 16:29:04.467, 1680380944467
194, -502.75, -280.92, -249.09, 0.00, 0.000, 0.000, 0.000, 16:29:04.467, 1680380944467
195, -207.25, -35.86, -79.44, 0.00, 0.000, 0.000, 0.000, 16:29:04.496, 1680380944496
196, 612.48, 443.49, 384.62, 0.00, 0.000, 0.000, 0.000, 16:29:04.496, 1680380944496
197, -315.45, -176.46, -128.09, 0.00, 0.000, 0.000, 0.000, 16:29:04.497, 1680380944497
198, -451.14, -204.49, -199.40, 0.00, 0.000, 0.000, 0.000, 16:29:04.497, 1680380944497
199, 492.50, 394.87, 323.95, 0.00, 0.000, 0.000, 0.000, 16:29:04.498, 1680380944498
200, 34.17, 33.99, 36.79, 0.00, 0.000, 0.000, 0.000, 16:29:04.498, 1680380944498
0, -547.32, -288.25, -277.71, 0.00, 0.000, 0.000, 0.000, 16:29:04.505, 1680380944505
1, 141.69, 188.45, 97.15, 0.00, 0.000, 0.000, 0.000, 16:29:04.526, 1680380944526
2, 388.26, 274.73, 229.76, 0.00, 0.000, 0.000, 0.000, 16:29:04.526, 1680380944526
3, -526.44, -287.54, -257.05, 0.00, 0.000, 0.000, 0.000, 16:29:04.527, 1680380944527
4, -235.26, -46.62, -93.59, 0.00, 0.000, 0.000, 0.000, 16:29:04.527, 1680380944527
5, 590.35, 435.30, 377.80, 0.00, 0.000, 0.000, 0.000, 16:29:04.532, 1680380944532
6, -325.08, -184.24, -143.18, 0.00, 0.000, 0.000, 0.000, 16:29:04.532, 1680380944532
7, -455.51, -206.67, -208.72, 0.00, 0.000, 0.000, 0.000, 16:29:04.556, 1680380944556
8, 481.52, 391.35, 321.23, 0.00, 0.000, 0.000, 0.000, 16:29:04.556, 1680380944556
9, 27.91, 32.40, 35.64, 0.00, 0.000, 0.000, 0.000, 16:29:04.557, 1680380944557
10, -535.08, -270.12, -255.27, 0.00, 0.000, 0.000, 0.000, 16:29:04.557, 1680380944557
11, 154.54, 198.65, 115.48, 0.00, 0.000, 0.000, 0.000, 16:29:04.558, 1680380944558
12, 416.57, 288.50, 247.47, 0.00, 0.000, 0.000, 0.000, 16:29:04.558, 1680380944558
13, -494.29, -273.17, -250.13, 0.00, 0.000, 0.000, 0.000, 16:29:04.586, 1680380944586
14, -202.91, -35.38, -84.85, 0.00, 0.000, 0.000, 0.000, 16:29:04.586, 1680380944586
15, 615.77, 452.27, 384.00, 0.00, 0.000, 0.000, 0.000, 16:29:04.587, 1680380944587
16, -310.71, -177.45, -138.65, 0.00, 0.000, 0.000, 0.000, 16:29:04.587, 1680380944587
17, -450.94, -203.19, -209.97, 0.00, 0.000, 0.000, 0.000, 16:29:04.588, 1680380944588
18, 487.43, 398.85, 315.71, 0.00, 0.000, 0.000, 0.000, 16:29:04.588, 1680380944588
19, 33.89, 41.53, 44.81, 0.00, 0.000, 0.000, 0.000, 16:29:04.616, 1680380944616
20, -538.08, -274.61, -262.13, 0.00, 0.000, 0.000, 0.000, 16:29:04.616, 1680380944616
21, 148.15, 199.36, 123.05, 0.00, 0.000, 0.000, 0.000, 16:29:04.617, 1680380944617
22, 413.89, 289.33, 256.81, 0.00, 0.000, 0.000, 0.000, 16:29:04.617, 1680380944617
23, -500.70, -274.20, -239.85, 0.00, 0.000, 0.000, 0.000, 16:29:04.618, 1680380944618
24, -208.20, -32.77, -84.97, 0.00, 0.000, 0.000, 0.000, 16:29:04.618, 1680380944618
25, 608.89, 439.75, 377.03, 0.00, 0.000, 0.000, 0.000, 16:29:04.646, 1680380944646
26, -320.63, -181.35, -153.41, 0.00, 0.000, 0.000, 0.000, 16:29:04.646, 1680380944646
27, -458.32, -213.18, -219.16, 0.00, 0.000, 0.000, 0.000, 16:29:04.647, 1680380944647
28, 489.79, 403.66, 322.68, 0.00, 0.000, 0.000, 0.000, 16:29:04.647, 1680380944647
29, 38.94, 38.43, 40.67, 0.00, 0.000, 0.000, 0.000, 16:29:04.648, 1680380944648
30, -538.99, -278.90, -258.07, 0.00, 0.000, 0.000, 0.000, 16:29:04.648, 1680380944648
31, 153.42, 196.83, 120.80, 0.00, 0.000, 0.000, 0.000, 16:29:04.676, 1680380944676
32, 410.18, 285.23, 249.09, 0.00, 0.000, 0.000, 0.000, 16:29:04.676, 1680380944676
33, -506.92, -279.44, -250.12, 0.00, 0.000, 0.000, 0.000, 16:29:04.677, 1680380944677
34, -202.03, -34.57, -80.89, 0.00, 0.000, 0.000, 0.000, 16:29:04.677, 1680380944677
35, 604.24, 439.66, 378.78, 0.00, 0.000, 0.000, 0.000, 16:29:04.678, 1680380944678
36, -325.83, -182.26, -149.34, 0.00, 0.000, 0.000, 0.000, 16:29:04.678, 1680380944678
37, -446.03, -200.45, -206.13, 0.00, 0.000, 0.000, 0.000, 16:29:04.706, 1680380944706
38, 500.10, 406.88, 328.17, 0.00, 0.000, 0.000, 0.000, 16:29:04.706, 1680380944706
39, 29.64, 34.85, 43.90, 0.00, 0.000, 0.000, 0.000, 16:29:04.707, 1680380944707
40, -538.23, -272.51, -255.29, 0.00, 0.000, 0.000, 0.000, 16:29:04.707, 1680380944707
41, 159.91, 209.24, 133.32, 0.00, 0.000, 0.000, 0.000, 16:29:04.708, 1680380944708
42, 416.76, 290.60, 262.34, 0.00, 0.000, 0.000, 0.000, 16:29:04.708, 1680380944708
43, -493.84, -268.47, -227.45, 0.00, 0.000, 0.000, 0.000, 16:29:04.736, 1680380944736
44, -195.46, -28.91, -73.92, 0.00, 0.000, 0.000, 0.000, 16:29:04.736, 1680380944736
45, 629.86, 452.25, 397.81, 0.00, 0.000, 0.000, 0.000, 16:29:04.737, 1680380944737
46, -302.74, -174.08, -134.51, 0.00, 0.000, 0.000, 0.000, 16:29:04.737, 1680380944737
47, -426.50, -191.41, -192.38, 0.00, 0.000, 0.000, 0.000, 16:29:04.738, 1680380944738
48, 504.86, 408.92, 329.94, 0.00, 0.000, 0.000, 0.000, 16:29:04.738, 1680380944738
49, 34.72, 38.10, 40.45, 0.00, 0.000, 0.000, 0.000, 16:29:04.766, 1680380944766
50, -534.34, -274.62, -253.13, 0.00, 0.000, 0.000, 0.000, 16:29:04.766, 1680380944766
51, 162.98, 206.69, 129.46, 0.00, 0.000, 0.000, 0.000, 16:29:04.767, 1680380944767
52, 412.84, 291.36, 258.40, 0.00, 0.000, 0.000, 0.000, 16:29:04.767, 1680380944767
53, -509.40, -275.42, -242.93, 0.00, 0.000, 0.000, 0.000, 16:29:04.768, 1680380944768
54, -206.52, -34.67, -81.48, 0.00, 0.000, 0.000, 0.000, 16:29:04.768, 1680380944768
55, 608.60, 440.77, 380.55, 0.00, 0.000, 0.000, 0.000, 16:29:04.796, 1680380944796
56, -317.84, -182.09, -149.96, 0.00, 0.000, 0.000, 0.000, 16:29:04.796, 1680380944796
57, -446.95, -200.14, -212.81, 0.00, 0.000, 0.000, 0.000, 16:29:04.797, 1680380944797
58, 491.45, 400.78, 319.46, 0.00, 0.000, 0.000, 0.000, 16:29:04.797, 1680380944797
59, 28.81, 35.14, 35.79, 0.00, 0.000, 0.000, 0.000, 16:29:04.798, 1680380944798
60, -531.77, -279.46, -256.80, 0.00, 0.000, 0.000, 0.000, 16:29:04.798, 1680380944798
61, 162.75, 201.34, 133.50, 0.00, 0.000, 0.000, 0.000, 16:29:04.826, 1680380944826
62, 415.12, 286.32, 259.71, 0.00, 0.000, 0.000, 0.000, 16:29:04.826, 1680380944826
63, -492.89, -275.09, -235.07, 0.00, 0.000, 0.000, 0.000, 16:29:04.827, 1680380944827
64, -198.72, -31.44, -72.91, 0.00, 0.000, 0.000, 0.000, 16:29:04.827, 1680380944827
65, 609.77, 443.95, 385.18, 0.00, 0.000, 0.000, 0.000, 16:29:04.828, 1680380944828
66, -321.98, -181.85, -148.32, 0.00, 0.000, 0.000, 0.000, 16:29:04.828, 1680380944828
67, -449.29, -207.23, -215.09, 0.00, 0.000, 0.000, 0.000, 16:29:04.856, 1680380944856
68, 495.68, 397.32, 323.02, 0.00, 0.000, 0.000, 0.000, 16:29:04.856, 1680380944856
69, 33.88, 28.84, 41.65, 0.00, 0.000, 0.000, 0.000, 16:29:04.857, 1680380944857
70, -532.83, -275.31, -251.79, 0.00, 0.000, 0.000, 0.000, 16:29:04.857, 1680380944857
71, 163.97, 202.63, 131.99, 0.00, 0.000, 0.000, 0.000, 16:29:04.864, 1680380944864
72, 413.15, 283.93, 258.41, 0.00, 0.000, 0.000, 0.000, 16:29:04.864, 1680380944864
73, -496.08, -270.54, -235.89, 0.00, 0.000, 0.000, 0.000, 16:29:04.886, 1680380944886
74, -187.97, -27.12, -68.26, 0.00, 0.000, 0.000, 0.000, 16:29:04.886, 1680380944886
75, 619.02, 454.03, 384.52, 0.00, 0.000, 0.000, 0.000, 16:29:04.887, 1680380944887
76, -327.72, -174.67, -161.38, 0.00, 0.000, 0.000, 0.000, 16:29:04.887, 1680380944887
77, -472.81, -201.54, -249.18, 0.00, 0.000, 0.000, 0.000, 16:29:04.888, 1680380944888
78, 472.86, 416.40, 295.73, 0.00, 0.000, 0.000, 0.000, 16:29:04.888, 1680380944888
79, -9.47, 40.52, 2.21, 0.00, 0.000, 0.000, 0.000, 16:29:04.916, 1680380944916
80, -578.04, -303.99, -283.57, 0.00, 0.000, 0.000, 0.000, 16:29:04.916, 1680380944916
81, 118.75, 161.72, 112.15, 0.00, 0.000, 0.000, 0.000, 16:29:04.917, 1680380944917
82, 386.30, 251.56, 252.97, 0.00, 0.000, 0.000, 0.000, 16:29:04.917, 1680380944917
83, -506.21, -294.25, -228.47, 0.00, 0.000, 0.000, 0.000, 16:29:04.918, 1680380944918
84, -189.69, -33.18, -67.16, 0.00, 0.000, 0.000, 0.000, 16:29:04.918, 1680380944918
85, 621.08, 447.67, 391.06, 0.00, 0.000, 0.000, 0.000, 16:29:04.947, 1680380944947
86, -311.36, -178.88, -142.76, 0.00, 0.000, 0.000, 0.000, 16:29:04.947, 1680380944947
87, -437.21, -200.07, -205.50, 0.00, 0.000, 0.000, 0.000, 16:29:04.947, 1680380944947
88, 500.07, 397.81, 318.14, 0.00, 0.000, 0.000, 0.000, 16:29:04.947, 1680380944947
89, 23.67, 23.28, 30.32, 0.00, 0.000, 0.000, 0.000, 16:29:04.948, 1680380944948
90, -537.25, -280.87, -265.09, 0.00, 0.000, 0.000, 0.000, 16:29:04.948, 1680380944948
91, 158.85, 202.87, 128.66, 0.00, 0.000, 0.000, 0.000, 16:29:04.976, 1680380944976
92, 401.10, 277.94, 250.91, 0.00, 0.000, 0.000, 0.000, 16:29:04.976, 1680380944976
93, -504.81, -273.02, -236.65, 0.00, 0.000, 0.000, 0.000, 16:29:04.977, 1680380944977
94, -197.71, -31.13, -73.93, 0.00, 0.000, 0.000, 0.000, 16:29:04.977, 1680380944977
95, 607.98, 442.61, 376.81, 0.00, 0.000, 0.000, 0.000, 16:29:04.978, 1680380944978
96, -322.44, -181.04, -163.66, 0.00, 0.000, 0.000, 0.000, 16:29:04.978, 1680380944978
97, -445.12, -202.97, -223.64, 0.00, 0.000, 0.000, 0.000, 16:29:05.006, 1680380945006
98, 499.69, 399.52, 303.12, 0.00, 0.000, 0.000, 0.000, 16:29:05.006, 1680380945006
99, 24.62, 28.01, 18.70, 0.00, 0.000, 0.000, 0.000, 16:29:05.008, 1680380945008
100, -535.84, -279.97, -258.95, 0.00, 0.000, 0.000, 0.000, 16:29:05.008, 1680380945008
101, 165.81, 205.65, 167.25, 0.00, 0.000, 0.000, 0.000, 16:29:05.008, 1680380945008
102, 392.33, 272.89, 307.01, 0.00, 0.000, 0.000, 0.000, 16:29:05.008, 1680380945008
103, -515.30, -282.47, -176.30, 0.00, 0.000, 0.000, 0.000, 16:29:05.036, 1680380945036
104, -201.34, -27.63, -13.50, 0.00, 0.000, 0.000, 0.000, 16:29:05.036, 1680380945036
105, 600.00, 441.76, 408.22, 0.00, 0.000, 0.000, 0.000, 16:29:05.037, 1680380945037
106, -323.43, -175.94, -163.18, 0.00, 0.000, 0.000, 0.000, 16:29:05.037, 1680380945037
107, -453.32, -198.95, -259.93, 0.00, 0.000, 0.000, 0.000, 16:29:05.038, 1680380945038
108, 496.02, 412.57, 261.53, 0.00, 0.000, 0.000, 0.000, 16:29:05.038, 1680380945038
109, 26.16, 30.44, -13.37, 0.00, 0.000, 0.000, 0.000, 16:29:05.066, 1680380945066
110, -527.62, -272.01, -274.18, 0.00, 0.000, 0.000, 0.000, 16:29:05.066, 1680380945066
111, 175.11, 209.57, 144.89, 0.00, 0.000, 0.000, 0.000, 16:29:05.067, 1680380945067
112, 413.21, 280.31, 286.55, 0.00, 0.000, 0.000, 0.000, 16:29:05.067, 1680380945067
113, -496.32, -272.15, -199.55, 0.00, 0.000, 0.000, 0.000, 16:29:05.068, 1680380945068
114, -187.63, -21.06, -38.88, 0.00, 0.000, 0.000, 0.000, 16:29:05.068, 1680380945068
115, 609.71, 442.20, 395.35, 0.00, 0.000, 0.000, 0.000, 16:29:05.096, 1680380945096
116, -324.85, -183.59, -141.28, 0.00, 0.000, 0.000, 0.000, 16:29:05.096, 1680380945096
117, -449.89, -195.45, -213.30, 0.00, 0.000, 0.000, 0.000, 16:29:05.097, 1680380945097
118, 490.10, 407.65, 310.53, 0.00, 0.000, 0.000, 0.000, 16:29:05.097, 1680380945097
119, 16.60, 28.21, 18.12, 0.00, 0.000, 0.000, 0.000, 16:29:05.098, 1680380945098
120, -539.56, -276.07, -274.10, 0.00, 0.000, 0.000, 0.000, 16:29:05.098, 1680380945098
121, 156.53, 210.71, 113.55, 0.00, 0.000, 0.000, 0.000, 16:29:05.126, 1680380945126
122, 388.88, 283.58, 239.20, 0.00, 0.000, 0.000, 0.000, 16:29:05.126, 1680380945126
123, -509.54, -274.35, -242.04, 0.00, 0.000, 0.000, 0.000, 16:29:05.127, 1680380945127
124, -197.85, -31.28, -59.72, 0.00, 0.000, 0.000, 0.000, 16:29:05.127, 1680380945127
125, 607.49, 442.09, 401.96, 0.00, 0.000, 0.000, 0.000, 16:29:05.128, 1680380945128
126, -323.63, -176.05, -132.14, 0.00, 0.000, 0.000, 0.000, 16:29:05.128, 1680380945128
127, -440.08, -200.01, -199.53, 0.00, 0.000, 0.000, 0.000, 16:29:05.156, 1680380945156
128, 497.51, 404.07, 317.07, 0.00, 0.000, 0.000, 0.000, 16:29:05.156, 1680380945156
129, 24.51, 29.15, 22.76, 0.00, 0.000, 0.000, 0.000, 16:29:05.157, 1680380945157
130, -535.04, -277.01, -282.76, 0.00, 0.000, 0.000, 0.000, 16:29:05.157, 1680380945157
131, 164.88, 208.15, 110.42, 0.00, 0.000, 0.000, 0.000, 16:29:05.158, 1680380945158
132, 403.17, 284.30, 235.51, 0.00, 0.000, 0.000, 0.000, 16:29:05.158, 1680380945158
133, -510.19, -275.23, -248.57, 0.00, 0.000, 0.000, 0.000, 16:29:05.186, 1680380945186
134, -195.89, -26.41, -63.87, 0.00, 0.000, 0.000, 0.000, 16:29:05.186, 1680380945186
135, 604.66, 437.36, 388.77, 0.00, 0.000, 0.000, 0.000, 16:29:05.187, 1680380945187
136, -329.74, -188.63, -141.93, 0.00, 0.000, 0.000, 0.000, 16:29:05.187, 1680380945187
137, -443.60, -205.35, -200.51, 0.00, 0.000, 0.000, 0.000, 16:29:05.189, 1680380945189
138, 496.11, 395.66, 332.28, 0.00, 0.000, 0.000, 0.000, 16:29:05.189, 1680380945189
139, 12.92, 26.23, 37.72, 0.00, 0.000, 0.000, 0.000, 16:29:05.216, 1680380945216
140, -542.34, -274.55, -254.23, 0.00, 0.000, 0.000, 0.000, 16:29:05.216, 1680380945216
141, 160.66, 201.80, 129.37, 0.00, 0.000, 0.000, 0.000, 16:29:05.217, 1680380945217
142, 387.44, 250.93, 222.14, 0.00, 0.000, 0.000, 0.000, 16:29:05.217, 1680380945217
143, -519.07, -283.53, -250.26, 0.00, 0.000, 0.000, 0.000, 16:29:05.218, 1680380945218
144, -206.03, -28.08, -81.10, 0.00, 0.000, 0.000, 0.000, 16:29:05.218, 1680380945218
145, 597.72, 435.44, 370.74, 0.00, 0.000, 0.000, 0.000, 16:29:05.246, 1680380945246
146, -336.72, -187.60, -160.32, 0.00, 0.000, 0.000, 0.000, 16:29:05.246, 1680380945246
147, -449.12, -201.05, -215.47, 0.00, 0.000, 0.000, 0.000, 16:29:05.247, 1680380945247
148, 500.51, 404.82, 322.84, 0.00, 0.000, 0.000, 0.000, 16:29:05.247, 1680380945247
149, 21.78, 24.62, 24.30, 0.00, 0.000, 0.000, 0.000, 16:29:05.248, 1680380945248
150, -531.81, -269.79, -265.67, 0.00, 0.000, 0.000, 0.000, 16:29:05.248, 1680380945248
151, 162.33, 203.97, 131.32, 0.00, 0.000, 0.000, 0.000, 16:29:05.276, 1680380945276
152, 394.15, 269.58, 257.58, 0.00, 0.000, 0.000, 0.000, 16:29:05.276, 1680380945276
153, -515.34, -286.17, -217.01, 0.00, 0.000, 0.000, 0.000, 16:29:05.277, 1680380945277
154, -203.17, -30.27, -37.30, 0.00, 0.000, 0.000, 0.000, 16:29:05.277, 1680380945277
155, 599.43, 442.08, 398.30, 0.00, 0.000, 0.000, 0.000, 16:29:05.278, 1680380945278
156, -336.68, -181.77, -158.43, 0.00, 0.000, 0.000, 0.000, 16:29:05.278, 1680380945278
157, -447.59, -201.26, -230.45, 0.00, 0.000, 0.000, 0.000, 16:29:05.306, 1680380945306
158, 507.82, 412.21, 303.68, 0.00, 0.000, 0.000, 0.000, 16:29:05.306, 1680380945306
159, 19.44, 27.07, 18.24, 0.00, 0.000, 0.000, 0.000, 16:29:05.307, 1680380945307
160, -532.32, -270.70, -264.61, 0.00, 0.000, 0.000, 0.000, 16:29:05.307, 1680380945307
161, 177.99, 208.38, 132.56, 0.00, 0.000, 0.000, 0.000, 16:29:05.308, 1680380945308
162, 395.91, 275.79, 240.92, 0.00, 0.000, 0.000, 0.000, 16:29:05.308, 1680380945308
163, -504.31, -274.20, -241.93, 0.00, 0.000, 0.000, 0.000, 16:29:05.339, 1680380945339
164, -190.06, -19.69, -64.71, 0.00, 0.000, 0.000, 0.000, 16:29:05.339, 1680380945339
165, 606.48, 437.42, 391.04, 0.00, 0.000, 0.000, 0.000, 16:29:05.340, 1680380945340
166, -328.97, -187.67, -144.08, 0.00, 0.000, 0.000, 0.000, 16:29:05.340, 1680380945340
167, -444.58, -201.40, -204.75, 0.00, 0.000, 0.000, 0.000, 16:29:05.340, 1680380945340
168, 501.97, 399.75, 318.39, 0.00, 0.000, 0.000, 0.000, 16:29:05.340, 1680380945340
169, 13.55, 20.00, 14.55, 0.00, 0.000, 0.000, 0.000, 16:29:05.366, 1680380945366
170, -539.85, -281.77, -275.57, 0.00, 0.000, 0.000, 0.000, 16:29:05.366, 1680380945366
171, 161.29, 203.82, 113.83, 0.00, 0.000, 0.000, 0.000, 16:29:05.367, 1680380945367
172, 384.01, 271.48, 231.10, 0.00, 0.000, 0.000, 0.000, 16:29:05.367, 1680380945367
173, -515.83, -279.94, -246.44, 0.00, 0.000, 0.000, 0.000, 16:29:05.368, 1680380945368
174, -194.63, -21.88, -67.94, 0.00, 0.000, 0.000, 0.000, 16:29:05.368, 1680380945368
175, 591.49, 434.46, 384.60, 0.00, 0.000, 0.000, 0.000, 16:29:05.396, 1680380945396
176, -336.72, -190.24, -149.23, 0.00, 0.000, 0.000, 0.000, 16:29:05.396, 1680380945396
177, -436.31, -198.21, -200.19, 0.00, 0.000, 0.000, 0.000, 16:29:05.397, 1680380945397
178, 511.96, 405.04, 330.65, 0.00, 0.000, 0.000, 0.000, 16:29:05.397, 1680380945397
179, 18.89, 23.74, 21.64, 0.00, 0.000, 0.000, 0.000, 16:29:05.398, 1680380945398
180, -527.58, -275.79, -268.31, 0.00, 0.000, 0.000, 0.000, 16:29:05.398, 1680380945398
181, 177.12, 209.45, 124.59, 0.00, 0.000, 0.000, 0.000, 16:29:05.426, 1680380945426
182, 393.89, 273.77, 239.67, 0.00, 0.000, 0.000, 0.000, 16:29:05.426, 1680380945426
183, -501.63, -275.81, -242.73, 0.00, 0.000, 0.000, 0.000, 16:29:05.427, 1680380945427
184, -189.41, -17.39, -69.56, 0.00, 0.000, 0.000, 0.000, 16:29:05.427, 1680380945427
185, 617.01, 443.65, 391.51, 0.00, 0.000, 0.000, 0.000, 16:29:05.428, 1680380945428
186, -325.26, -179.56, -150.73, 0.00, 0.000, 0.000, 0.000, 16:29:05.428, 1680380945428
187, -432.12, -190.84, -202.64, 0.00, 0.000, 0.000, 0.000, 16:29:05.456, 1680380945456
188, 515.23, 420.75, 332.57, 0.00, 0.000, 0.000, 0.000, 16:29:05.456, 1680380945456
189, 24.43, 29.34, 41.15, 0.00, 0.000, 0.000, 0.000, 16:29:05.457, 1680380945457
190, -524.67, -264.89, -251.53, 0.00, 0.000, 0.000, 0.000, 16:29:05.457, 1680380945457
191, 176.37, 210.49, 146.47, 0.00, 0.000, 0.000, 0.000, 16:29:05.460, 1680380945460
192, 399.37, 279.91, 255.50, 0.00, 0.000, 0.000, 0.000, 16:29:05.460, 1680380945460
193, -502.08, -274.12, -240.74, 0.00, 0.000, 0.000, 0.000, 16:29:05.487, 1680380945487
194, -186.48, -19.31, -65.87, 0.00, 0.000, 0.000, 0.000, 16:29:05.487, 1680380945487
195, 598.97, 434.52, 379.66, 0.00, 0.000, 0.000, 0.000, 16:29:05.489, 1680380945489
196, -327.65, -188.19, -151.17, 0.00, 0.000, 0.000, 0.000, 16:29:05.489, 1680380945489
197, -434.70, -188.89, -203.45, 0.00, 0.000, 0.000, 0.000, 16:29:05.490, 1680380945490
198, 503.63, 405.45, 329.95, 0.00, 0.000, 0.000, 0.000, 16:29:05.490, 1680380945490
199, 13.87, 17.55, 30.55, 0.00, 0.000, 0.000, 0.000, 16:29:05.516, 1680380945516
200, -527.49, -274.41, -258.95, 0.00, 0.000, 0.000, 0.000, 16:29:05.516, 1680380945516
0, 177.83, 210.33, 138.03, 0.00, 0.000, 0.000, 0.000, 16:29:05.517, 1680380945517
1, 393.37, 268.25, 243.21, 0.00, 0.000, 0.000, 0.000, 16:29:05.518, 1680380945518
2, -505.58, -276.17, -242.78, 0.00, 0.000, 0.000, 0.000, 16:29:05.518, 1680380945518
3, -195.32, -27.34, -66.30, 0.00, 0.000, 0.000, 0.000, 16:29:05.519, 1680380945519
4, 598.76, 435.90, 379.41, 0.00, 0.000, 0.000, 0.000, 16:29:05.519, 1680380945519
5, -338.80, -191.86, -152.78, 0.00, 0.000, 0.000, 0.000, 16:29:05.546, 1680380945546
6, -441.60, -196.89, -209.66, 0.00, 0.000, 0.000, 0.000, 16:29:05.546, 1680380945546
7, 503.54, 405.90, 325.72, 0.00, 0.000, 0.000, 0.000, 16:29:05.547, 1680380945547
8, 12.01, 24.22, 26.27, 0.00, 0.000, 0.000, 0.000, 16:29:05.547, 1680380945547
9, -527.51, -272.28, -253.48, 0.00, 0.000, 0.000, 0.000, 16:29:05.576, 1680380945576
10, 181.86, 212.24, 142.78, 0.00, 0.000, 0.000, 0.000, 16:29:05.576, 1680380945576
11, 395.06, 274.26, 253.31, 0.00, 0.000, 0.000, 0.000, 16:29:05.577, 1680380945577
12, -504.22, -275.17, -236.58, 0.00, 0.000, 0.000, 0.000, 16:29:05.577, 1680380945577
13, -187.18, -23.57, -64.83, 0.00, 0.000, 0.000, 0.000, 16:29:05.578, 1680380945578
14, 599.98, 429.86, 372.60, 0.00, 0.000, 0.000, 0.000, 16:29:05.578, 1680380945578
15, -339.54, -189.34, -161.29, 0.00, 0.000, 0.000, 0.000, 16:29:05.579, 1680380945579
16, -447.96, -200.94, -218.55, 0.00, 0.000, 0.000, 0.000, 16:29:05.579, 1680380945579
17, 489.37, 397.17, 311.46, 0.00, 0.000, 0.000, 0.000, 16:29:05.606, 1680380945606
18, -5.28, 15.32, 16.80, 0.00, 0.000, 0.000, 0.000, 16:29:05.606, 1680380945606
19, -544.97, -278.85, -265.33, 0.00, 0.000, 0.000, 0.000, 16:29:05.607, 1680380945607
20, 166.54, 211.19, 133.09, 0.00, 0.000, 0.000, 0.000, 16:29:05.607, 1680380945607
21, 376.11, 265.80, 238.87, 0.00, 0.000, 0.000, 0.000, 16:29:05.636, 1680380945636
22, -523.23, -284.47, -248.06, 0.00, 0.000, 0.000, 0.000, 16:29:05.636, 1680380945636
23, -196.90, -22.33, -70.87, 0.00, 0.000, 0.000, 0.000, 16:29:05.637, 1680380945637
24, 602.70, 437.63, 378.95, 0.00, 0.000, 0.000, 0.000, 16:29:05.637, 1680380945637
25, -332.72, -183.54, -153.12, 0.00, 0.000, 0.000, 0.000, 16:29:05.638, 1680380945638
26, -438.59, -194.29, -206.18, 0.00, 0.000, 0.000, 0.000, 16:29:05.638, 1680380945638
27, 508.80, 405.29, 326.48, 0.00, 0.000, 0.000, 0.000, 16:29:05.639, 1680380945639
28, 16.10, 24.74, 22.73, 0.00, 0.000, 0.000, 0.000, 16:29:05.639, 1680380945639
29, -531.76, -272.43, -270.35, 0.00, 0.000, 0.000, 0.000, 16:29:05.666, 1680380945666
30, 180.10, 216.81, 137.42, 0.00, 0.000, 0.000, 0.000, 16:29:05.666, 1680380945666
31, 393.11, 269.56, 242.70, 0.00, 0.000, 0.000, 0.000, 16:29:05.667, 1680380945667
32, -492.00, -276.37, -235.29, 0.00, 0.000, 0.000, 0.000, 16:29:05.667, 1680380945667
33, -180.70, -19.18, -58.66, 0.00, 0.000, 0.000, 0.000, 16:29:05.696, 1680380945696
34, 614.90, 433.91, 386.27, 0.00, 0.000, 0.000, 0.000, 16:29:05.696, 1680380945696
35, -326.58, -188.00, -158.44, 0.00, 0.000, 0.000, 0.000, 16:29:05.697, 1680380945697
36, -429.66, -192.59, -206.30, 0.00, 0.000, 0.000, 0.000, 16:29:05.697, 1680380945697
37, 511.45, 411.14, 328.92, 0.00, 0.000, 0.000, 0.000, 16:29:05.698, 1680380945698
38, 15.15, 21.85, 29.81, 0.00, 0.000, 0.000, 0.000, 16:29:05.698, 1680380945698
39, -521.22, -270.70, -254.66, 0.00, 0.000, 0.000, 0.000, 16:29:05.699, 1680380945699
40, 184.71, 211.46, 146.67, 0.00, 0.000, 0.000, 0.000, 16:29:05.699, 1680380945699
41, 393.86, 270.51, 250.15, 0.00, 0.000, 0.000, 0.000, 16:29:05.727, 1680380945727
42, -495.12, -270.82, -235.89, 0.00, 0.000, 0.000, 0.000, 16:29:05.727, 1680380945727
43, -166.70, -13.50, -62.18, 0.00, 0.000, 0.000, 0.000, 16:29:05.728, 1680380945728
44, 615.48, 451.45, 375.28, 0.00, 0.000, 0.000, 0.000, 16:29:05.728, 1680380945728
45, -333.69, -172.41, -174.32, 0.00, 0.000, 0.000, 0.000, 16:29:05.756, 1680380945756
46, -453.70, -179.31, -236.11, 0.00, 0.000, 0.000, 0.000, 16:29:05.756, 1680380945756
47, 483.75, 415.18, 293.79, 0.00, 0.000, 0.000, 0.000, 16:29:05.757, 1680380945757
48, -22.96, 2.72, -0.85, 0.00, 0.000, 0.000, 0.000, 16:29:05.757, 1680380945757
49, -566.37, -311.10, -276.05, 0.00, 0.000, 0.000, 0.000, 16:29:05.758, 1680380945758
50, 171.55, 179.96, 137.93, 0.00, 0.000, 0.000, 0.000, 16:29:05.758, 1680380945758
51, 395.72, 251.12, 247.16, 0.00, 0.000, 0.000, 0.000, 16:29:05.759, 1680380945759
52, -491.25, -280.43, -229.32, 0.00, 0.000, 0.000, 0.000, 16:29:05.759, 1680380945759
53, -157.71, -14.55, -50.56, 0.00, 0.000, 0.000, 0.000, 16:29:05.786, 1680380945786
54, 629.14, 442.80, 392.11, 0.00, 0.000, 0.000, 0.000, 16:29:05.786, 1680380945786
55, -312.03, -179.36, -146.36, 0.00, 0.000, 0.000, 0.000, 16:29:05.794, 1680380945794
56, -422.89, -189.30, -208.09, 0.00, 0.000, 0.000, 0.000, 16:29:05.794, 1680380945794
57, 520.16, 412.35, 331.79, 0.00, 0.000, 0.000, 0.000, 16:29:05.816, 1680380945816
58, 25.18, 22.21, 32.51, 0.00, 0.000, 0.000, 0.000, 16:29:05.816, 1680380945816
59, -519.25, -263.62, -252.00, 0.00, 0.000, 0.000, 0.000, 16:29:05.817, 1680380945817
60, 189.14, 217.82, 140.33, 0.00, 0.000, 0.000, 0.000, 16:29:05.817, 1680380945817
61, 393.48, 278.21, 249.06, 0.00, 0.000, 0.000, 0.000, 16:29:05.818, 1680380945818
62, -506.62, -275.30, -243.73, 0.00, 0.000, 0.000, 0.000, 16:29:05.818, 1680380945818
63, -187.84, -23.67, -69.00, 0.00, 0.000, 0.000, 0.000, 16:29:05.819, 1680380945819
64, 602.76, 436.85, 374.67, 0.00, 0.000, 0.000, 0.000, 16:29:05.819, 1680380945819
65, -334.69, -189.81, -164.28, 0.00, 0.000, 0.000, 0.000, 16:29:05.846, 1680380945846
66, -432.13, -195.43, -221.24, 0.00, 0.000, 0.000, 0.000, 16:29:05.846, 1680380945846
67, 509.46, 407.34, 301.00, 0.00, 0.000, 0.000, 0.000, 16:29:05.847, 1680380945847
68, 10.48, 18.81, 12.61, 0.00, 0.000, 0.000, 0.000, 16:29:05.847, 1680380945847
69, -529.80, -278.58, -241.96, 0.00, 0.000, 0.000, 0.000, 16:29:05.876, 1680380945876
70, 175.79, 210.85, 176.83, 0.00, 0.000, 0.000, 0.000, 16:29:05.876, 1680380945876
71, 373.03, 265.80, 302.03, 0.00, 0.000, 0.000, 0.000, 16:29:05.878, 1680380945878
72, -523.96, -281.36, -179.09, 0.00, 0.000, 0.000, 0.000, 16:29:05.878, 1680380945878
73, -193.37, -27.65, -19.25, 0.00, 0.000, 0.000, 0.000, 16:29:05.878, 1680380945878
74, 600.54, 438.09, 388.20, 0.00, 0.000, 0.000, 0.000, 16:29:05.878, 1680380945878
75, -332.58, -184.96, -186.74, 0.00, 0.000, 0.000, 0.000, 16:29:05.879, 1680380945879
76, -438.84, -196.07, -265.09, 0.00, 0.000, 0.000, 0.000, 16:29:05.879, 1680380945879
77, 510.10, 407.67, 265.18, 0.00, 0.000, 0.000, 0.000, 16:29:05.906, 1680380945906
78, 2.32, 18.16, -22.48, 0.00, 0.000, 0.000, 0.000, 16:29:05.906, 1680380945906
79, -531.12, -271.72, -274.87, 0.00, 0.000, 0.000, 0.000, 16:29:05.907, 1680380945907
80, 179.23, 213.98, 153.82, 0.00, 0.000, 0.000, 0.000, 16:29:05.907, 1680380945907
81, 383.08, 268.88, 271.42, 0.00, 0.000, 0.000, 0.000, 16:29:05.937, 1680380945937
82, -509.03, -273.61, -203.30, 0.00, 0.000, 0.000, 0.000, 16:29:05.937, 1680380945937
83, -178.15, -16.43, -28.95, 0.00, 0.000, 0.000, 0.000, 16:29:05.938, 1680380945938
84, 604.05, 434.11, 398.04, 0.00, 0.000, 0.000, 0.000, 16:29:05.938, 1680380945938
85, -341.97, -189.23, -156.13, 0.00, 0.000, 0.000, 0.000, 16:29:05.938, 1680380945938
86, -442.62, -195.42, -225.96, 0.00, 0.000, 0.000, 0.000, 16:29:05.938, 1680380945938
87, 491.58, 405.07, 296.30, 0.00, 0.000, 0.000, 0.000, 16:29:05.939, 1680380945939
88, -11.00, 14.67, -7.89, 0.00, 0.000, 0.000, 0.000, 16:29:05.939, 1680380945939
89, -538.02, -272.81, -280.70, 0.00, 0.000, 0.000, 0.000, 16:29:05.966, 1680380945966
90, 174.13, 219.95, 123.62, 0.00, 0.000, 0.000, 0.000, 16:29:05.966, 1680380945966
91, 384.44, 269.40, 237.77, 0.00, 0.000, 0.000, 0.000, 16:29:05.967, 1680380945967
92, -510.99, -274.84, -234.01, 0.00, 0.000, 0.000, 0.000, 16:29:05.967, 1680380945967
93, -178.62, -13.51, -48.79, 0.00, 0.000, 0.000, 0.000, 16:29:05.996, 1680380945996
94, 595.99, 436.49, 395.07, 0.00, 0.000, 0.000, 0.000, 16:29:05.996, 1680380945996
95, -340.61, -189.08, -146.91, 0.00, 0.000, 0.000, 0.000, 16:29:05.997, 1680380945997
96, -432.94, -190.19, -207.57, 0.00, 0.000, 0.000, 0.000, 16:29:05.997, 1680380945997
97, 505.91, 407.35, 318.06, 0.00, 0.000, 0.000, 0.000, 16:29:05.998, 1680380945998
98, 9.41, 22.04, 5.94, 0.00, 0.000, 0.000, 0.000, 16:29:05.998, 1680380945998
99, -523.31, -268.20, -274.83, 0.00, 0.000, 0.000, 0.000, 16:29:05.999, 1680380945999
100, 186.36, 216.01, 127.23, 0.00, 0.000, 0.000, 0.000, 16:29:05.999, 1680380945999
101, 385.42, 267.66, 233.70, 0.00, 0.000, 0.000, 0.000, 16:29:06.026, 1680380946026
102, -508.76, -276.15, -241.61, 0.00, 0.000, 0.000, 0.000, 16:29:06.026, 1680380946026
103, -176.38, -15.77, -53.73, 0.00, 0.000, 0.000, 0.000, 16:29:06.027, 1680380946027
104, 599.09, 431.96, 384.82, 0.00, 0.000, 0.000, 0.000, 16:29:06.027, 1680380946027
105, -336.72, -191.28, -149.55, 0.00, 0.000, 0.000, 0.000, 16:29:06.056, 1680380946056
106, -433.21, -192.72, -193.91, 0.00, 0.000, 0.000, 0.000, 16:29:06.056, 1680380946056
107, 501.65, 409.76, 337.91, 0.00, 0.000, 0.000, 0.000, 16:29:06.057, 1680380946057
108, -5.25, 11.81, 30.57, 0.00, 0.000, 0.000, 0.000, 16:29:06.057, 1680380946057
109, -529.74, -272.78, -242.55, 0.00, 0.000, 0.000, 0.000, 16:29:06.058, 1680380946058
110, 183.65, 217.14, 144.09, 0.00, 0.000, 0.000, 0.000, 16:29:06.058, 1680380946058
111, 385.86, 267.82, 242.75, 0.00, 0.000, 0.000, 0.000, 16:29:06.059, 1680380946059
112, -506.84, -279.37, -242.18, 0.00, 0.000, 0.000, 0.000, 16:29:06.059, 1680380946059
113, -174.26, -18.06, -66.63, 0.00, 0.000, 0.000, 0.000, 16:29:06.086, 1680380946086
114, 604.62, 432.28, 368.58, 0.00, 0.000, 0.000, 0.000, 16:29:06.086, 1680380946086
115, -335.92, -193.63, -165.64, 0.00, 0.000, 0.000, 0.000, 16:29:06.087, 1680380946087
116, -431.32, -192.55, -216.98, 0.00, 0.000, 0.000, 0.000, 16:29:06.087, 1680380946087
117, 511.00, 406.34, 318.80, 0.00, 0.000, 0.000, 0.000, 16:29:06.116, 1680380946116
118, -0.91, 7.22, 17.29, 0.00, 0.000, 0.000, 0.000, 16:29:06.116, 1680380946116
119, -545.20, -294.06, -262.23, 0.00, 0.000, 0.000, 0.000, 16:29:06.117, 1680380946117
120, 166.83, 202.04, 156.76, 0.00, 0.000, 0.000, 0.000, 16:29:06.117, 1680380946117
121, 358.82, 255.11, 269.34, 0.00, 0.000, 0.000, 0.000, 16:29:06.118, 1680380946118
122, -523.44, -283.43, -217.40, 0.00, 0.000, 0.000, 0.000, 16:29:06.118, 1680380946118
123, -194.25, -23.27, -65.02, 0.00, 0.000, 0.000, 0.000, 16:29:06.119, 1680380946119
124, 588.97, 429.25, 356.62, 0.00, 0.000, 0.000, 0.000, 16:29:06.119, 1680380946119
125, -354.13, -194.97, -191.98, 0.00, 0.000, 0.000, 0.000, 16:29:06.146, 1680380946146
126, -439.09, -191.23, -224.05, 0.00, 0.000, 0.000, 0.000, 16:29:06.146, 1680380946146
127, 513.68, 412.75, 323.80, 0.00, 0.000, 0.000, 0.000, 16:29:06.147, 1680380946147
128, 6.02, 26.15, 24.61, 0.00, 0.000, 0.000, 0.000, 16:29:06.147, 1680380946147
129, -531.03, -265.76, -251.47, 0.00, 0.000, 0.000, 0.000, 16:29:06.176, 1680380946176
130, 188.96, 218.34, 151.23, 0.00, 0.000, 0.000, 0.000, 16:29:06.176, 1680380946176
131, 371.16, 258.39, 242.13, 0.00, 0.000, 0.000, 0.000, 16:29:06.178, 1680380946178
132, -509.85, -279.75, -232.63, 0.00, 0.000, 0.000, 0.000, 16:29:06.178, 1680380946178
133, -178.74, -16.11, -47.51, 0.00, 0.000, 0.000, 0.000, 16:29:06.178, 1680380946178
134, 595.47, 432.64, 380.35, 0.00, 0.000, 0.000, 0.000, 16:29:06.178, 1680380946178
135, -343.16, -188.75, -168.36, 0.00, 0.000, 0.000, 0.000, 16:29:06.179, 1680380946179
136, -432.49, -190.29, -218.17, 0.00, 0.000, 0.000, 0.000, 16:29:06.179, 1680380946179
137, 507.93, 408.77, 307.31, 0.00, 0.000, 0.000, 0.000, 16:29:06.206, 1680380946206
138, -10.17, 8.51, -2.37, 0.00, 0.000, 0.000, 0.000, 16:29:06.206, 1680380946206
139, -540.00, -276.45, -271.02, 0.00, 0.000, 0.000, 0.000, 16:29:06.207, 1680380946207
140, 185.87, 209.79, 133.32, 0.00, 0.000, 0.000, 0.000, 16:29:06.207, 1680380946207
141, 365.66, 260.09, 241.06, 0.00, 0.000, 0.000, 0.000, 16:29:06.236, 1680380946236
142, -522.86, -277.63, -236.15, 0.00, 0.000, 0.000, 0.000, 16:29:06.236, 1680380946236
143, -180.89, -16.64, -53.73, 0.00, 0.000, 0.000, 0.000, 16:29:06.237, 1680380946237
144, 595.04, 426.82, 384.05, 0.00, 0.000, 0.000, 0.000, 16:29:06.237, 1680380946237
145, -347.49, -192.56, -162.29, 0.00, 0.000, 0.000, 0.000, 16:29:06.238, 1680380946238
146, -426.29, -195.45, -209.64, 0.00, 0.000, 0.000, 0.000, 16:29:06.238, 1680380946238
147, 518.55, 410.26, 323.54, 0.00, 0.000, 0.000, 0.000, 16:29:06.239, 1680380946239
148, 2.06, 19.37, 9.48, 0.00, 0.000, 0.000, 0.000, 16:29:06.239, 1680380946239
149, -530.88, -272.68, -265.40, 0.00, 0.000, 0.000, 0.000, 16:29:06.266, 1680380946266
150, 198.39, 224.88, 143.42, 0.00, 0.000, 0.000, 0.000, 16:29:06.266, 1680380946266
151, 386.71, 266.90, 242.75, 0.00, 0.000, 0.000, 0.000, 16:29:06.267, 1680380946267
152, -500.74, -267.27, -238.19, 0.00, 0.000, 0.000, 0.000, 16:29:06.267, 1680380946267
153, -164.79, -10.05, -50.81, 0.00, 0.000, 0.000, 0.000, 16:29:06.296, 1680380946296
154, 605.20, 441.23, 383.40, 0.00, 0.000, 0.000, 0.000, 16:29:06.296, 1680380946296
155, -335.51, -182.85, -156.45, 0.00, 0.000, 0.000, 0.000, 16:29:06.297, 1680380946297
156, -430.23, -185.48, -196.36, 0.00, 0.000, 0.000, 0.000, 16:29:06.297, 1680380946297
157, 525.55, 417.68, 343.10, 0.00, 0.000, 0.000, 0.000, 16:29:06.298, 1680380946298
158, 6.03, 20.10, 30.34, 0.00, 0.000, 0.000, 0.000, 16:29:06.298, 1680380946298
159, -528.53, -263.17, -247.54, 0.00, 0.000, 0.000, 0.000, 16:29:06.299, 1680380946299
160, 185.66, 219.29, 142.62, 0.00, 0.000, 0.000, 0.000, 16:29:06.299, 1680380946299
161, 387.65, 264.88, 242.74, 0.00, 0.000, 0.000, 0.000, 16:29:06.326, 1680380946326
162, -504.85, -278.52, -243.30, 0.00, 0.000, 0.000, 0.000, 16:29:06.326, 1680380946326
163, -182.79, -20.11, -72.46, 0.00, 0.000, 0.000, 0.000, 16:29:06.327, 1680380946327
164, 590.41, 424.43, 365.84, 0.00, 0.000, 0.000, 0.000, 16:29:06.327, 1680380946327
165, -348.70, -198.24, -170.26, 0.00, 0.000, 0.000, 0.000, 16:29:06.356, 1680380946356
166, -431.67, -189.63, -209.94, 0.00, 0.000, 0.000, 0.000, 16:29:06.356, 1680380946356
167, 503.84, 408.10, 321.17, 0.00, 0.000, 0.000, 0.000, 16:29:06.357, 1680380946357
168, -9.68, 4.14, 14.72, 0.00, 0.000, 0.000, 0.000, 16:29:06.357, 1680380946357
169, -537.50, -280.48, -258.25, 0.00, 0.000, 0.000, 0.000, 16:29:06.358, 1680380946358
170, 192.36, 221.27, 137.87, 0.00, 0.000, 0.000, 0.000, 16:29:06.358, 1680380946358
171, 379.77, 265.76, 231.93, 0.00, 0.000, 0.000, 0.000, 16:29:06.359, 1680380946359
172, -516.53, -280.29, -250.82, 0.00, 0.000, 0.000, 0.000, 16:29:06.359, 1680380946359
173, -176.48, -18.07, -66.53, 0.00, 0.000, 0.000, 0.000, 16:29:06.386, 1680380946386
174, 596.86, 437.32, 373.39, 0.00, 0.000, 0.000, 0.000, 16:29:06.386, 1680380946386
175, -345.06, -192.45, -164.61, 0.00, 0.000, 0.000, 0.000, 16:29:06.387, 1680380946387
176, -431.09, -193.21, -204.53, 0.00, 0.000, 0.000, 0.000, 16:29:06.387, 1680380946387
177, 517.05, 410.78, 341.88, 0.00, 0.000, 0.000, 0.000, 16:29:06.416, 1680380946416
178, 9.00, 19.84, 27.51, 0.00, 0.000, 0.000, 0.000, 16:29:06.416, 1680380946416
179, -523.24, -265.76, -252.82, 0.00, 0.000, 0.000, 0.000, 16:29:06.417, 1680380946417
180, 191.25, 220.66, 139.59, 0.00, 0.000, 0.000, 0.000, 16:29:06.417, 1680380946417
181, 376.89, 257.56, 230.19, 0.00, 0.000, 0.000, 0.000, 16:29:06.418, 1680380946418
182, -508.91, -280.01, -251.97, 0.00, 0.000, 0.000, 0.000, 16:29:06.418, 1680380946418
183, -178.31, -15.91, -74.48, 0.00, 0.000, 0.000, 0.000, 16:29:06.419, 1680380946419
184, 601.14, 435.20, 367.62, 0.00, 0.000, 0.000, 0.000, 16:29:06.419, 1680380946419
185, -337.25, -191.04, -164.26, 0.00, 0.000, 0.000, 0.000, 16:29:06.446, 1680380946446
186, -425.19, -189.04, -202.59, 0.00, 0.000, 0.000, 0.000, 16:29:06.446, 1680380946446
187, 519.86, 411.02, 334.14, 0.00, 0.000, 0.000, 0.000, 16:29:06.447, 1680380946447
188, -16.25, 11.64, 14.21, 0.00, 0.000, 0.000, 0.000, 16:29:06.447, 1680380946447
189, -536.76, -275.04, -270.72, 0.00, 0.000, 0.000, 0.000, 16:29:06.476, 1680380946476
190, 183.67, 216.22, 137.44, 0.00, 0.000, 0.000, 0.000, 16:29:06.476, 1680380946476
191, 365.79, 263.11, 231.79, 0.00, 0.000, 0.000, 0.000, 16:29:06.477, 1680380946477
192, -502.67, -269.70, -246.87, 0.00, 0.000, 0.000, 0.000, 16:29:06.477, 1680380946477
193, -165.04, -5.94, -51.62, 0.00, 0.000, 0.000, 0.000, 16:29:06.478, 1680380946478
194, 610.07, 441.29, 382.92, 0.00, 0.000, 0.000, 0.000, 16:29:06.478, 1680380946478
195, -326.72, -190.76, -160.80, 0.00, 0.000, 0.000, 0.000, 16:29:06.479, 1680380946479
196, -409.54, -179.70, -198.98, 0.00, 0.000, 0.000, 0.000, 16:29:06.479, 1680380946479
197, 522.26, 418.33, 338.54, 0.00, 0.000, 0.000, 0.000, 16:29:06.506, 1680380946506
198, 4.57, 15.69, 26.39, 0.00, 0.000, 0.000, 0.000, 16:29:06.506, 1680380946506
199, -518.02, -265.47, -249.71, 0.00, 0.000, 0.000, 0.000, 16:29:06.507, 1680380946507
200, 204.98, 218.08, 159.05, 0.00, 0.000, 0.000, 0.000, 16:29:06.507, 1680380946507
0, 387.33, 260.74, 246.19, 0.00, 0.000, 0.000, 0.000, 16:29:06.508, 1680380946508
1, -501.95, -274.46, -237.17, 0.00, 0.000, 0.000, 0.000, 16:29:06.536, 1680380946536
2, -169.50, -18.86, -63.91, 0.00, 0.000, 0.000, 0.000, 16:29:06.536, 1680380946536
3, 600.76, 423.03, 367.38, 0.00, 0.000, 0.000, 0.000, 16:29:06.537, 1680380946537
4, -350.33, -199.20, -174.26, 0.00, 0.000, 0.000, 0.000, 16:29:06.537, 1680380946537
5, -425.91, -192.35, -211.88, 0.00, 0.000, 0.000, 0.000, 16:29:06.538, 1680380946538
6, 516.78, 401.73, 336.09, 0.00, 0.000, 0.000, 0.000, 16:29:06.538, 1680380946538
7, 10.57, 11.60, 31.49, 0.00, 0.000, 0.000, 0.000, 16:29:06.566, 1680380946566
8, -507.14, -262.52, -239.54, 0.00, 0.000, 0.000, 0.000, 16:29:06.566, 1680380946566
9, 209.18, 235.13, 156.13, 0.00, 0.000, 0.000, 0.000, 16:29:06.567, 1680380946567
10, 364.25, 278.27, 224.29, 0.00, 0.000, 0.000, 0.000, 16:29:06.567, 1680380946567
11, -521.86, -259.09, -259.59, 0.00, 0.000, 0.000, 0.000, 16:29:06.568, 1680380946568
12, -186.17, 3.67, -81.44, 0.00, 0.000, 0.000, 0.000, 16:29:06.568, 1680380946568
13, 576.30, 443.55, 343.74, 0.00, 0.000, 0.000, 0.000, 16:29:06.596, 1680380946596
14, -380.67, -230.61, -180.21, 0.00, 0.000, 0.000, 0.000, 16:29:06.596, 1680380946596
15, -443.55, -225.16, -223.83, 0.00, 0.000, 0.000, 0.000, 16:29:06.597, 1680380946597
16, 514.67, 386.87, 328.99, 0.00, 0.000, 0.000, 0.000, 16:29:06.597, 1680380946597
17, 7.69, -4.59, 24.55, 0.00, 0.000, 0.000, 0.000, 16:29:06.598, 1680380946598
18, -517.55, -276.12, -247.75, 0.00, 0.000, 0.000, 0.000, 16:29:06.598, 1680380946598
19, 209.11, 223.36, 161.46, 0.00, 0.000, 0.000, 0.000, 16:29:06.626, 1680380946626
20, 382.39, 254.47, 239.51, 0.00, 0.000, 0.000, 0.000, 16:29:06.626, 1680380946626
21, -505.83, -279.22, -247.68, 0.00, 0.000, 0.000, 0.000, 16:29:06.627, 1680380946627
22, -168.39, -8.03, -69.82, 0.00, 0.000, 0.000, 0.000, 16:29:06.627, 1680380946627
23, 614.87, 436.92, 372.25, 0.00, 0.000, 0.000, 0.000, 16:29:06.628, 1680380946628
24, -340.70, -194.57, -165.18, 0.00, 0.000, 0.000, 0.000, 16:29:06.628, 1680380946628
25, -423.10, -190.19, -209.11, 0.00, 0.000, 0.000, 0.000, 16:29:06.656, 1680380946656
26, 524.00, 411.14, 323.86, 0.00, 0.000, 0.000, 0.000, 16:29:06.656, 1680380946656
27, -7.78, 4.90, 15.93, 0.00, 0.000, 0.000, 0.000, 16:29:06.657, 1680380946657
28, -528.37, -278.13, -263.06, 0.00, 0.000, 0.000, 0.000, 16:29:06.657, 1680380946657
29, 191.08, 218.81, 141.94, 0.00, 0.000, 0.000, 0.000, 16:29:06.658, 1680380946658
30, 371.47, 251.70, 226.69, 0.00, 0.000, 0.000, 0.000, 16:29:06.658, 1680380946658
31, -497.20, -285.26, -250.68, 0.00, 0.000, 0.000, 0.000, 16:29:06.686, 1680380946686
32, -161.07, -16.26, -78.18, 0.00, 0.000, 0.000, 0.000, 16:29:06.686, 1680380946686
33, 601.79, 428.70, 349.00, 0.00, 0.000, 0.000, 0.000, 16:29:06.687, 1680380946687
34, -345.31, -195.39, -173.04, 0.00, 0.000, 0.000, 0.000, 16:29:06.687, 1680380946687
35, -427.46, -186.20, -188.62, 0.00, 0.000, 0.000, 0.000, 16:29:06.688, 1680380946688
36, 517.42, 411.88, 371.51, 0.00, 0.000, 0.000, 0.000, 16:29:06.688, 1680380946688
37, -5.91, 12.13, 75.59, 0.00, 0.000, 0.000, 0.000, 16:29:06.716, 1680380946716
38, -530.27, -265.73, -192.08, 0.00, 0.000, 0.000, 0.000, 16:29:06.716, 1680380946716
39, 189.32, 216.56, 184.99, 0.00, 0.000, 0.000, 0.000, 16:29:06.717, 1680380946717
40, 373.84, 266.17, 240.52, 0.00, 0.000, 0.000, 0.000, 16:29:06.717, 1680380946717
41, -504.63, -273.21, -262.15, 0.00, 0.000, 0.000, 0.000, 16:29:06.718, 1680380946718
42, -167.39, -3.65, -107.13, 0.00, 0.000, 0.000, 0.000, 16:29:06.718, 1680380946718
43, 606.32, 437.39, 331.77, 0.00, 0.000, 0.000, 0.000, 16:29:06.746, 1680380946746
44, -336.46, -186.28, -185.01, 0.00, 0.000, 0.000, 0.000, 16:29:06.746, 1680380946746
45, -410.52, -181.01, -196.12, 0.00, 0.000, 0.000, 0.000, 16:29:06.747, 1680380946747
46, 528.59, 418.40, 347.19, 0.00, 0.000, 0.000, 0.000, 16:29:06.747, 1680380946747
47, 3.26, 10.82, 44.37, 0.00, 0.000, 0.000, 0.000, 16:29:06.748, 1680380946748
48, -516.78, -267.14, -212.39, 0.00, 0.000, 0.000, 0.000, 16:29:06.748, 1680380946748
49, 199.48, 220.42, 176.63, 0.00, 0.000, 0.000, 0.000, 16:29:06.777, 1680380946777
50, 371.57, 263.52, 251.14, 0.00, 0.000, 0.000, 0.000, 16:29:06.777, 1680380946777
51, -510.53, -276.56, -243.04, 0.00, 0.000, 0.000, 0.000, 16:29:06.778, 1680380946778
52, -171.62, -11.98, -65.75, 0.00, 0.000, 0.000, 0.000, 16:29:06.778, 1680380946778
53, 590.61, 428.75, 359.11, 0.00, 0.000, 0.000, 0.000, 16:29:06.784, 1680380946784
54, -345.20, -187.13, -187.97, 0.00, 0.000, 0.000, 0.000, 16:29:06.784, 1680380946784
55, -423.61, -189.52, -219.12, 0.00, 0.000, 0.000, 0.000, 16:29:06.806, 1680380946806
56, 514.08, 418.45, 323.48, 0.00, 0.000, 0.000, 0.000, 16:29:06.806, 1680380946806
57, -19.43, 7.30, 11.79, 0.00, 0.000, 0.000, 0.000, 16:29:06.807, 1680380946807
58, -524.89, -269.59, -243.74, 0.00, 0.000, 0.000, 0.000, 16:29:06.807, 1680380946807
59, 188.55, 228.68, 161.81, 0.00, 0.000, 0.000, 0.000, 16:29:06.808, 1680380946808
60, 376.54, 264.69, 248.31, 0.00, 0.000, 0.000, 0.000, 16:29:06.808, 1680380946808
61, -510.91, -276.52, -230.27, 0.00, 0.000, 0.000, 0.000, 16:29:06.837, 1680380946837
62, -170.63, -7.79, -59.52, 0.00, 0.000, 0.000, 0.000, 16:29:06.837, 1680380946837
63, 591.58, 431.15, 362.91, 0.00, 0.000, 0.000, 0.000, 16:29:06.838, 1680380946838
64, -340.60, -195.04, -177.40, 0.00, 0.000, 0.000, 0.000, 16:29:06.838, 1680380946838
65, -411.81, -182.19, -219.73, 0.00, 0.000, 0.000, 0.000, 16:29:06.838, 1680380946838
66, 528.99, 415.65, 326.39, 0.00, 0.000, 0.000, 0.000, 16:29:06.838, 1680380946838
67, -3.93, 12.25, 10.64, 0.00, 0.000, 0.000, 0.000, 16:29:06.866, 1680380946866
68, -525.29, -265.48, -248.02, 0.00, 0.000, 0.000, 0.000, 16:29:06.866, 1680380946866
69, 209.97, 225.89, 154.96, 0.00, 0.000, 0.000, 0.000, 16:29:06.867, 1680380946867
70, 373.40, 264.71, 249.43, 0.00, 0.000, 0.000, 0.000, 16:29:06.867, 1680380946867
71, -515.55, -281.72, -232.57, 0.00, 0.000, 0.000, 0.000, 16:29:06.868, 1680380946868
72, -171.49, -11.18, -50.27, 0.00, 0.000, 0.000, 0.000, 16:29:06.868, 1680380946868
73, 600.09, 432.42, 386.08, 0.00, 0.000, 0.000, 0.000, 16:29:06.896, 1680380946896
74, -349.29, -196.23, -148.12, 0.00, 0.000, 0.000, 0.000, 16:29:06.896, 1680380946896
75, -422.21, -189.35, -198.35, 0.00, 0.000, 0.000, 0.000, 16:29:06.897, 1680380946897
76, 513.77, 411.60, 338.91, 0.00, 0.000, 0.000, 0.000, 16:29:06.897, 1680380946897
77, -11.74, 4.58, 15.51, 0.00, 0.000, 0.000, 0.000, 16:29:06.898, 1680380946898
78, -524.26, -268.06, -258.88, 0.00, 0.000, 0.000, 0.000, 16:29:06.898, 1680380946898
79, 199.53, 222.93, 142.37, 0.00, 0.000, 0.000, 0.000, 16:29:06.926, 1680380946926
80, 372.64, 259.76, 224.23, 0.00, 0.000, 0.000, 0.000, 16:29:06.926, 1680380946926
81, -503.04, -275.46, -259.59, 0.00, 0.000, 0.000, 0.000, 16:29:06.927, 1680380946927
82, -145.12, -5.63, -70.31, 0.00, 0.000, 0.000, 0.000, 16:29:06.927, 1680380946927
83, 606.65, 428.37, 368.91, 0.00, 0.000, 0.000, 0.000, 16:29:06.928, 1680380946928
84, -340.13, -200.57, -159.99, 0.00, 0.000, 0.000, 0.000, 16:29:06.928, 1680380946928
85, -423.32, -192.25, -180.03, 0.00, 0.000, 0.000, 0.000, 16:29:06.957, 1680380946957
86, 515.09, 406.58, 364.16, 0.00, 0.000, 0.000, 0.000, 16:29:06.957, 1680380946957
87, -15.50, -0.77, 52.31, 0.00, 0.000, 0.000, 0.000, 16:29:06.958, 1680380946958
88, -529.23, -270.91, -240.64, 0.00, 0.000, 0.000, 0.000, 16:29:06.958, 1680380946958
89, 186.18, 223.46, 135.36, 0.00, 0.000, 0.000, 0.000, 16:29:06.958, 1680380946958
90, 361.82, 258.26, 203.90, 0.00, 0.000, 0.000, 0.000, 16:29:06.958, 1680380946958
91, -520.65, -279.83, -267.48, 0.00, 0.000, 0.000, 0.000, 16:29:06.986, 1680380946986
92, -172.98, -14.33, -73.80, 0.00, 0.000, 0.000, 0.000, 16:29:06.986, 1680380946986
93, 589.24, 427.91, 364.97, 0.00, 0.000, 0.000, 0.000, 16:29:06.987, 1680380946987
94, -348.83, -194.05, -167.64, 0.00, 0.000, 0.000, 0.000, 16:29:06.987, 1680380946987
95, -424.52, -184.51, -202.83, 0.00, 0.000, 0.000, 0.000, 16:29:06.988, 1680380946988
96, 518.69, 415.43, 340.21, 0.00, 0.000, 0.000, 0.000, 16:29:06.988, 1680380946988
97, -10.70, 0.74, 31.94, 0.00, 0.000, 0.000, 0.000, 16:29:07.016, 1680380947016
98, -523.39, -280.03, -233.81, 0.00, 0.000, 0.000, 0.000, 16:29:07.016, 1680380947016
99, 197.94, 221.39, 163.41, 0.00, 0.000, 0.000, 0.000, 16:29:07.017, 1680380947017
100, 363.75, 252.67, 228.04, 0.00, 0.000, 0.000, 0.000, 16:29:07.017, 1680380947017
101, -516.86, -280.99, -257.67, 0.00, 0.000, 0.000, 0.000, 16:29:07.018, 1680380947018
102, -176.13, -11.77, -71.34, 0.00, 0.000, 0.000, 0.000, 16:29:07.018, 1680380947018
103, 591.51, 434.57, 354.24, 0.00, 0.000, 0.000, 0.000, 16:29:07.047, 1680380947047
104, -349.89, -193.12, -178.39, 0.00, 0.000, 0.000, 0.000, 16:29:07.047, 1680380947047
105, -424.55, -188.09, -201.50, 0.00, 0.000, 0.000, 0.000, 16:29:07.047, 1680380947047
106, 513.13, 408.49, 346.51, 0.00, 0.000, 0.000, 0.000, 16:29:07.047, 1680380947047
107, -15.90, 0.88, 31.38, 0.00, 0.000, 0.000, 0.000, 16:29:07.048, 1680380947048
108, -548.99, -285.92, -256.58, 0.00, 0.000, 0.000, 0.000, 16:29:07.048, 1680380947048
109, 184.21, 223.52, 155.75, 0.00, 0.000, 0.000, 0.000, 16:29:07.076, 1680380947076
110, 347.11, 243.20, 220.90, 0.00, 0.000, 0.000, 0.000, 16:29:07.076, 1680380947076
111, -522.73, -282.08, -250.49, 0.00, 0.000, 0.000, 0.000, 16:29:07.077, 1680380947077
112, -165.33, -6.67, -61.34, 0.00, 0.000, 0.000, 0.000, 16:29:07.077, 1680380947077
113, 600.19, 430.66, 372.60, 0.00, 0.000, 0.000, 0.000, 16:29:07.078, 1680380947078
114, -344.28, -198.02, -169.72, 0.00, 0.000, 0.000, 0.000, 16:29:07.078, 1680380947078
115, -410.52, -179.03, -193.03, 0.00, 0.000, 0.000, 0.000, 16:29:07.106, 1680380947106
116, 533.20, 418.92, 347.52, 0.00, 0.000, 0.000, 0.000, 16:29:07.106, 1680380947106
117, -3.74, 5.99, 27.88, 0.00, 0.000, 0.000, 0.000, 16:29:07.107, 1680380947107
118, -525.11, -263.95, -242.37, 0.00, 0.000, 0.000, 0.000, 16:29:07.107, 1680380947107
119, 212.87, 231.43, 165.69, 0.00, 0.000, 0.000, 0.000, 16:29:07.108, 1680380947108
120, 375.35, 255.85, 245.52, 0.00, 0.000, 0.000, 0.000, 16:29:07.108, 1680380947108
121, -505.59, -272.16, -239.25, 0.00, 0.000, 0.000, 0.000, 16:29:07.136, 1680380947136
122, -161.29, -10.05, -55.25, 0.00, 0.000, 0.000, 0.000, 16:29:07.136, 1680380947136
123, 590.16, 424.68, 370.28, 0.00, 0.000, 0.000, 0.000, 16:29:07.137, 1680380947137
124, -351.69, -191.56, -163.45, 0.00, 0.000, 0.000, 0.000, 16:29:07.137, 1680380947137
125, -420.12, -182.77, -186.26, 0.00, 0.000, 0.000, 0.000, 16:29:07.138, 1680380947138
126, 520.38, 413.91, 340.81, 0.00, 0.000, 0.000, 0.000, 16:29:07.138, 1680380947138
127, -21.21, -2.11, 18.17, 0.00, 0.000, 0.000, 0.000, 16:29:07.166, 1680380947166
128, -528.66, -272.98, -244.04, 0.00, 0.000, 0.000, 0.000, 16:29:07.166, 1680380947166
129, 199.67, 224.07, 158.84, 0.00, 0.000, 0.000, 0.000, 16:29:07.167, 1680380947167
130, 371.81, 252.29, 239.38, 0.00, 0.000, 0.000, 0.000, 16:29:07.167, 1680380947167
131, -504.60, -271.64, -241.62, 0.00, 0.000, 0.000, 0.000, 16:29:07.168, 1680380947168
132, -164.73, -12.75, -49.67, 0.00, 0.000, 0.000, 0.000, 16:29:07.168, 1680380947168
133, 590.07, 427.76, 373.13, 0.00, 0.000, 0.000, 0.000, 16:29:07.196, 1680380947196
134, -352.59, -202.31, -169.44, 0.00, 0.000, 0.000, 0.000, 16:29:07.196, 1680380947196
135, -425.89, -187.75, -201.15, 0.00, 0.000, 0.000, 0.000, 16:29:07.197, 1680380947197
136, 518.11, 406.71, 340.53, 0.00, 0.000, 0.000, 0.000, 16:29:07.197, 1680380947197
137, -19.68, -0.21, 17.30, 0.00, 0.000, 0.000, 0.000, 16:29:07.198, 1680380947198
138, -537.12, -273.16, -248.36, 0.00, 0.000, 0.000, 0.000, 16:29:07.198, 1680380947198
139, 206.58, 230.56, 158.81, 0.00, 0.000, 0.000, 0.000, 16:29:07.227, 1680380947227
140, 368.76, 255.90, 235.95, 0.00, 0.000, 0.000, 0.000, 16:29:07.227, 1680380947227
141, -507.90, -274.56, -246.00, 0.00, 0.000, 0.000, 0.000, 16:29:07.228, 1680380947228
142, -164.43, -1.79, -55.50, 0.00, 0.000, 0.000, 0.000, 16:29:07.228, 1680380947228
143, 594.02, 434.88, 370.97, 0.00, 0.000, 0.000, 0.000, 16:29:07.229, 1680380947229
144, -341.33, -192.32, -165.80, 0.00, 0.000, 0.000, 0.000, 16:29:07.229, 1680380947229
145, -412.73, -179.77, -195.71, 0.00, 0.000, 0.000, 0.000, 16:29:07.256, 1680380947256
146, 527.09, 419.64, 329.80, 0.00, 0.000, 0.000, 0.000, 16:29:07.256, 1680380947256
147, -16.24, 3.41, 9.01, 0.00, 0.000, 0.000, 0.000, 16:29:07.257, 1680380947257
148, -517.68, -265.86, -248.40, 0.00, 0.000, 0.000, 0.000, 16:29:07.257, 1680380947257
149, 214.94, 230.19, 159.82, 0.00, 0.000, 0.000, 0.000, 16:29:07.258, 1680380947258
150, 367.17, 255.42, 228.99, 0.00, 0.000, 0.000, 0.000, 16:29:07.258, 1680380947258
151, -509.10, -275.05, -244.63, 0.00, 0.000, 0.000, 0.000, 16:29:07.286, 1680380947286
152, -166.20, -2.14, -61.38, 0.00, 0.000, 0.000, 0.000, 16:29:07.286, 1680380947286
153, 602.84, 436.96, 374.34, 0.00, 0.000, 0.000, 0.000, 16:29:07.287, 1680380947287
154, -344.82, -188.56, -166.34, 0.00, 0.000, 0.000, 0.000, 16:29:07.287, 1680380947287
155, -409.52, -177.47, -200.82, 0.00, 0.000, 0.000, 0.000, 16:29:07.288, 1680380947288
156, 532.76, 423.80, 341.28, 0.00, 0.000, 0.000, 0.000, 16:29:07.288, 1680380947288
157, -12.57, 6.88, 15.66, 0.00, 0.000, 0.000, 0.000, 16:29:07.316, 1680380947316
158, -516.21, -266.09, -246.69, 0.00, 0.000, 0.000, 0.000, 16:29:07.316, 1680380947316
159, 203.00, 227.19, 154.33, 0.00, 0.000, 0.000, 0.000, 16:29:07.317, 1680380947317
160, 358.44, 227.04, 213.09, 0.00, 0.000, 0.000, 0.000, 16:29:07.317, 1680380947317
161, -518.35, -277.50, -247.77, 0.00, 0.000, 0.000, 0.000, 16:29:07.318, 1680380947318
162, -158.05, -7.19, -53.69, 0.00, 0.000, 0.000, 0.000, 16:29:07.318, 1680380947318
163, 598.07, 427.11, 367.20, 0.00, 0.000, 0.000, 0.000, 16:29:07.346, 1680380947346
164, -358.11, -205.71, -166.47, 0.00, 0.000, 0.000, 0.000, 16:29:07.346, 1680380947346
165, -418.41, -184.95, -200.99, 0.00, 0.000, 0.000, 0.000, 16:29:07.347, 1680380947347
166, 517.23, 414.33, 328.80, 0.00, 0.000, 0.000, 0.000, 16:29:07.347, 1680380947347
167, -22.14, -0.73, 12.50, 0.00, 0.000, 0.000, 0.000, 16:29:07.348, 1680380947348
168, -529.47, -267.51, -253.37, 0.00, 0.000, 0.000, 0.000, 16:29:07.348, 1680380947348
169, 202.44, 227.78, 163.00, 0.00, 0.000, 0.000, 0.000, 16:29:07.376, 1680380947376
170, 367.00, 259.60, 237.79, 0.00, 0.000, 0.000, 0.000, 16:29:07.376, 1680380947376
171, -506.84, -274.06, -231.69, 0.00, 0.000, 0.000, 0.000, 16:29:07.377, 1680380947377
172, -145.78, 4.04, -37.04, 0.00, 0.000, 0.000, 0.000, 16:29:07.377, 1680380947377
173, 613.27, 446.91, 379.34, 0.00, 0.000, 0.000, 0.000, 16:29:07.378, 1680380947378
174, -351.10, -179.31, -183.26, 0.00, 0.000, 0.000, 0.000, 16:29:07.378, 1680380947378
175, -433.25, -164.05, -227.26, 0.00, 0.000, 0.000, 0.000, 16:29:07.406, 1680380947406
176, 503.61, 423.13, 304.26, 0.00, 0.000, 0.000, 0.000, 16:29:07.406, 1680380947406
177, -49.17, -2.27, -27.27, 0.00, 0.000, 0.000, 0.000, 16:29:07.407, 1680380947407
178, -566.02, -309.81, -280.47, 0.00, 0.000, 0.000, 0.000, 16:29:07.407, 1680380947407
179, 180.93, 192.58, 138.65, 0.00, 0.000, 0.000, 0.000, 16:29:07.412, 1680380947412
180, 358.23, 231.72, 228.36, 0.00, 0.000, 0.000, 0.000, 16:29:07.412, 1680380947412
181, -495.32, -285.03, -233.50, 0.00, 0.000, 0.000, 0.000, 16:29:07.437, 1680380947437
182, -141.31, -1.43, -41.81, 0.00, 0.000, 0.000, 0.000, 16:29:07.438, 1680380947438
183, 613.39, 434.63, 378.54, 0.00, 0.000, 0.000, 0.000, 16:29:07.438, 1680380947438
184, -339.24, -196.14, -163.87, 0.00, 0.000, 0.000, 0.000, 16:29:07.438, 1680380947438
185, -416.39, -184.15, -204.29, 0.00, 0.000, 0.000, 0.000, 16:29:07.438, 1680380947438
186, 525.01, 409.08, 327.14, 0.00, 0.000, 0.000, 0.000, 16:29:07.438, 1680380947438
187, -23.23, -7.10, 2.21, 0.00, 0.000, 0.000, 0.000, 16:29:07.466, 1680380947466
188, -531.48, -275.01, -268.36, 0.00, 0.000, 0.000, 0.000, 16:29:07.466, 1680380947466
189, 204.85, 223.99, 144.70, 0.00, 0.000, 0.000, 0.000, 16:29:07.467, 1680380947467
190, 362.59, 249.86, 221.68, 0.00, 0.000, 0.000, 0.000, 16:29:07.467, 1680380947467
191, -517.61, -283.78, -259.45, 0.00, 0.000, 0.000, 0.000, 16:29:07.468, 1680380947468
192, -162.55, -1.54, -68.23, 0.00, 0.000, 0.000, 0.000, 16:29:07.468, 1680380947468
193, 595.91, 425.64, 360.82, 0.00, 0.000, 0.000, 0.000, 16:29:07.496, 1680380947496
194, -349.89, -204.68, -185.41, 0.00, 0.000, 0.000, 0.000, 16:29:07.496, 1680380947496
195, -412.06, -187.78, -212.54, 0.00, 0.000, 0.000, 0.000, 16:29:07.497, 1680380947497
196, 537.90, 417.46, 322.00, 0.00, 0.000, 0.000, 0.000, 16:29:07.497, 1680380947497
197, -12.83, 4.78, -2.01, 0.00, 0.000, 0.000, 0.000, 16:29:07.504, 1680380947504
198, -521.42, -258.54, -247.86, 0.00, 0.000, 0.000, 0.000, 16:29:07.504, 1680380947504
199, 199.19, 234.85, 190.31, 0.00, 0.000, 0.000, 0.000, 16:29:07.526, 1680380947526
200, 354.89, 249.21, 289.45, 0.00, 0.000, 0.000, 0.000, 16:29:07.526, 1680380947526
0, -516.11, -282.36, -171.74, 0.00, 0.000, 0.000, 0.000, 16:29:07.527, 1680380947527
1, -157.39, -8.16, 7.41, 0.00, 0.000, 0.000, 0.000, 16:29:07.528, 1680380947528
2, 586.96, 433.92, 400.19, 0.00, 0.000, 0.000, 0.000, 16:29:07.528, 1680380947528
3, -359.80, -190.98, -179.68, 0.00, 0.000, 0.000, 0.000, 16:29:07.529, 1680380947529
4, -427.80, -178.49, -241.03, 0.00, 0.000, 0.000, 0.000, 16:29:07.529, 1680380947529
5, 520.59, 419.78, 280.89, 0.00, 0.000, 0.000, 0.000, 16:29:07.556, 1680380947556
6, -11.90, 7.28, -36.77, 0.00, 0.000, 0.000, 0.000, 16:29:07.556, 1680380947556
7, -525.41, -268.59, -281.61, 0.00, 0.000, 0.000, 0.000, 16:29:07.557, 1680380947557
8, 217.01, 232.14, 160.67, 0.00, 0.000, 0.000, 0.000, 16:29:07.557, 1680380947557
9, 359.79, 248.18, 246.78, 0.00, 0.000, 0.000, 0.000, 16:29:07.586, 1680380947586
10, -512.09, -280.46, -212.53, 0.00, 0.000, 0.000, 0.000, 16:29:07.586, 1680380947586
11, -164.01, -5.76, -19.17, 0.00, 0.000, 0.000, 0.000, 16:29:07.587, 1680380947587
12, 589.94, 422.98, 404.95, 0.00, 0.000, 0.000, 0.000, 16:29:07.587, 1680380947587
13, -350.11, -197.76, -149.72, 0.00, 0.000, 0.000, 0.000, 16:29:07.588, 1680380947588
14, -428.84, -184.03, -197.26, 0.00, 0.000, 0.000, 0.000, 16:29:07.588, 1680380947588
15, 510.23, 414.63, 324.27, 0.00, 0.000, 0.000, 0.000, 16:29:07.589, 1680380947589
16, -31.35, 0.81, -13.28, 0.00, 0.000, 0.000, 0.000, 16:29:07.589, 1680380947589
17, -535.93, -269.53, -276.00, 0.00, 0.000, 0.000, 0.000, 16:29:07.616, 1680380947616
18, 192.54, 227.08, 138.49, 0.00, 0.000, 0.000, 0.000, 16:29:07.616, 1680380947616
19, 349.94, 252.66, 222.85, 0.00, 0.000, 0.000, 0.000, 16:29:07.617, 1680380947617
20, -516.48, -275.75, -238.24, 0.00, 0.000, 0.000, 0.000, 16:29:07.617, 1680380947617
21, -154.88, 3.01, -35.83, 0.00, 0.000, 0.000, 0.000, 16:29:07.646, 1680380947646
22, 596.34, 432.97, 393.98, 0.00, 0.000, 0.000, 0.000, 16:29:07.646, 1680380947646
23, -347.86, -196.77, -148.87, 0.00, 0.000, 0.000, 0.000, 16:29:07.647, 1680380947647
24, -412.46, -177.48, -185.51, 0.00, 0.000, 0.000, 0.000, 16:29:07.647, 1680380947647
25, 525.44, 415.67, 341.51, 0.00, 0.000, 0.000, 0.000, 16:29:07.648, 1680380947648
26, -22.92, -6.71, -1.45, 0.00, 0.000, 0.000, 0.000, 16:29:07.648, 1680380947648
27, -519.86, -264.15, -265.89, 0.00, 0.000, 0.000, 0.000, 16:29:07.649, 1680380947649
28, 214.08, 230.99, 141.35, 0.00, 0.000, 0.000, 0.000, 16:29:07.649, 1680380947649
29, 357.28, 253.04, 212.84, 0.00, 0.000, 0.000, 0.000, 16:29:07.676, 1680380947676
30, -510.47, -275.64, -249.09, 0.00, 0.000, 0.000, 0.000, 16:29:07.676, 1680380947676
31, -156.84, 2.36, -52.56, 0.00, 0.000, 0.000, 0.000, 16:29:07.677, 1680380947677
32, 596.58, 431.84, 376.54, 0.00, 0.000, 0.000, 0.000, 16:29:07.677, 1680380947677
33, -354.14, -204.97, -169.24, 0.00, 0.000, 0.000, 0.000, 16:29:07.706, 1680380947706
34, -428.78, -199.95, -202.57, 0.00, 0.000, 0.000, 0.000, 16:29:07.706, 1680380947706
35, 500.59, 414.61, 339.82, 0.00, 0.000, 0.000, 0.000, 16:29:07.707, 1680380947707
36, -45.98, -10.77, 4.66, 0.00, 0.000, 0.000, 0.000, 16:29:07.707, 1680380947707
37, -529.25, -271.05, -254.60, 0.00, 0.000, 0.000, 0.000, 16:29:07.708, 1680380947708
38, 206.12, 227.36, 159.43, 0.00, 0.000, 0.000, 0.000, 16:29:07.708, 1680380947708
39, 342.95, 243.79, 218.76, 0.00, 0.000, 0.000, 0.000, 16:29:07.709, 1680380947709
40, -521.64, -282.00, -254.04, 0.00, 0.000, 0.000, 0.000, 16:29:07.709, 1680380947709
41, -162.64, 1.13, -58.12, 0.00, 0.000, 0.000, 0.000, 16:29:07.736, 1680380947736
42, 590.51, 428.26, 371.29, 0.00, 0.000, 0.000, 0.000, 16:29:07.736, 1680380947736
43, -348.13, -198.68, -172.59, 0.00, 0.000, 0.000, 0.000, 16:29:07.737, 1680380947737
44, -415.36, -182.41, -211.50, 0.00, 0.000, 0.000, 0.000, 16:29:07.737, 1680380947737
45, 529.44, 413.15, 323.79, 0.00, 0.000, 0.000, 0.000, 16:29:07.766, 1680380947766
46, -18.65, -2.54, 1.95, 0.00, 0.000, 0.000, 0.000, 16:29:07.766, 1680380947766
47, -527.09, -273.01, -248.49, 0.00, 0.000, 0.000, 0.000, 16:29:07.767, 1680380947767
48, 200.21, 227.62, 174.62, 0.00, 0.000, 0.000, 0.000, 16:29:07.767, 1680380947767
49, 355.61, 251.75, 264.72, 0.00, 0.000, 0.000, 0.000, 16:29:07.768, 1680380947768
50, -516.22, -286.31, -215.38, 0.00, 0.000, 0.000, 0.000, 16:29:07.768, 1680380947768
51, -162.48, -0.27, -47.59, 0.00, 0.000, 0.000, 0.000, 16:29:07.769, 1680380947769
52, 584.40, 424.93, 348.05, 0.00, 0.000, 0.000, 0.000, 16:29:07.769, 1680380947769
53, -359.34, -198.69, -199.27, 0.00, 0.000, 0.000, 0.000, 16:29:07.796, 1680380947796
54, -423.87, -183.05, -226.42, 0.00, 0.000, 0.000, 0.000, 16:29:07.796, 1680380947796
55, 526.06, 417.95, 320.58, 0.00, 0.000, 0.000, 0.000, 16:29:07.797, 1680380947797
56, -25.44, 2.95, -7.56, 0.00, 0.000, 0.000, 0.000, 16:29:07.797, 1680380947797
57, -525.99, -266.22, -268.33, 0.00, 0.000, 0.000, 0.000, 16:29:07.826, 1680380947826
58, 210.63, 227.94, 156.72, 0.00, 0.000, 0.000, 0.000, 16:29:07.826, 1680380947826
59, 353.17, 248.53, 232.53, 0.00, 0.000, 0.000, 0.000, 16:29:07.827, 1680380947827
60, -507.44, -285.03, -232.91, 0.00, 0.000, 0.000, 0.000, 16:29:07.827, 1680380947827
61, -149.91, -3.75, -33.75, 0.00, 0.000, 0.000, 0.000, 16:29:07.828, 1680380947828
62, 586.50, 422.58, 373.05, 0.00, 0.000, 0.000, 0.000, 16:29:07.828, 1680380947828
63, -360.78, -200.19, -174.69, 0.00, 0.000, 0.000, 0.000, 16:29:07.829, 1680380947829
64, -420.49, -186.35, -225.81, 0.00, 0.000, 0.000, 0.000, 16:29:07.829, 1680380947829
65, 523.59, 415.40, 311.15, 0.00, 0.000, 0.000, 0.000, 16:29:07.856, 1680380947856
66, -29.00, -4.61, -29.23, 0.00, 0.000, 0.000, 0.000, 16:29:07.856, 1680380947856
67, -528.05, -269.73, -282.29, 0.00, 0.000, 0.000, 0.000, 16:29:07.857, 1680380947857
68, 209.59, 233.82, 151.07, 0.00, 0.000, 0.000, 0.000, 16:29:07.857, 1680380947857
69, 346.06, 245.27, 225.13, 0.00, 0.000, 0.000, 0.000, 16:29:07.886, 1680380947886
70, -514.42, -278.95, -232.18, 0.00, 0.000, 0.000, 0.000, 16:29:07.886, 1680380947886
71, -154.33, 0.89, -30.99, 0.00, 0.000, 0.000, 0.000, 16:29:07.887, 1680380947887
72, 596.60, 432.90, 386.12, 0.00, 0.000, 0.000, 0.000, 16:29:07.887, 1680380947887
73, -347.69, -192.34, -160.97, 0.00, 0.000, 0.000, 0.000, 16:29:07.888, 1680380947888
74, -396.15, -171.48, -191.40, 0.00, 0.000, 0.000, 0.000, 16:29:07.888, 1680380947888
75, 546.32, 426.51, 335.58, 0.00, 0.000, 0.000, 0.000, 16:29:07.889, 1680380947889
76, -9.15, 0.87, 1.44, 0.00, 0.000, 0.000, 0.000, 16:29:07.889, 1680380947889
77, -514.93, -263.16, -259.03, 0.00, 0.000, 0.000, 0.000, 16:29:07.916, 1680380947916
78, 221.22, 236.23, 156.80, 0.00, 0.000, 0.000, 0.000, 16:29:07.916, 1680380947916
79, 370.10, 254.50, 233.62, 0.00, 0.000, 0.000, 0.000, 16:29:07.924, 1680380947924
80, -504.62, -275.49, -240.79, 0.00, 0.000, 0.000, 0.000, 16:29:07.924, 1680380947924
81, -144.92, 6.86, -43.27, 0.00, 0.000, 0.000, 0.000, 16:29:07.946, 1680380947946
82, 595.70, 422.39, 377.51, 0.00, 0.000, 0.000, 0.000, 16:29:07.946, 1680380947946
83, -356.21, -199.93, -168.21, 0.00, 0.000, 0.000, 0.000, 16:29:07.947, 1680380947947
84, -412.55, -178.83, -194.20, 0.00, 0.000, 0.000, 0.000, 16:29:07.947, 1680380947947
85, 534.61, 423.47, 346.04, 0.00, 0.000, 0.000, 0.000, 16:29:07.948, 1680380947948
86, -27.96, -2.36, 8.37, 0.00, 0.000, 0.000, 0.000, 16:29:07.948, 1680380947948
87, -527.96, -265.19, -246.69, 0.00, 0.000, 0.000, 0.000, 16:29:07.949, 1680380947949
88, 206.54, 236.78, 157.18, 0.00, 0.000, 0.000, 0.000, 16:29:07.949, 1680380947949
89, 353.99, 242.01, 221.51, 0.00, 0.000, 0.000, 0.000, 16:29:07.976, 1680380947976
90, -514.86, -281.02, -252.75, 0.00, 0.000, 0.000, 0.000, 16:29:07.976, 1680380947976
91, -154.68, 0.18, -52.30, 0.00, 0.000, 0.000, 0.000, 16:29:07.977, 1680380947977
92, 597.46, 424.89, 369.38, 0.00, 0.000, 0.000, 0.000, 16:29:07.977, 1680380947977
93, -352.62, -203.69, -174.40, 0.00, 0.000, 0.000, 0.000, 16:29:08.006, 1680380948006
94, -418.46, -189.41, -205.98, 0.00, 0.000, 0.000, 0.000, 16:29:08.006, 1680380948006
95, 522.38, 411.35, 337.05, 0.00, 0.000, 0.000, 0.000, 16:29:08.007, 1680380948007
96, -30.98, -12.10, 4.83, 0.00, 0.000, 0.000, 0.000, 16:29:08.007, 1680380948007
97, -535.53, -267.81, -255.81, 0.00, 0.000, 0.000, 0.000, 16:29:08.008, 1680380948008
98, 203.97, 230.55, 155.93, 0.00, 0.000, 0.000, 0.000, 16:29:08.008, 1680380948008
99, 349.25, 237.08, 222.06, 0.00, 0.000, 0.000, 0.000, 16:29:08.009, 1680380948009
100, -518.80, -281.81, -251.43, 0.00, 0.000, 0.000, 0.000, 16:29:08.009, 1680380948009
101, -156.06, 2.21, -50.47, 0.00, 0.000, 0.000, 0.000, 16:29:08.036, 1680380948036
102, 580.25, 420.25, 366.14, 0.00, 0.000, 0.000, 0.000, 16:29:08.036, 1680380948036
103, -363.95, -201.89, -170.08, 0.00, 0.000, 0.000, 0.000, 16:29:08.037, 1680380948037
104, -421.50, -181.62, -195.02, 0.00, 0.000, 0.000, 0.000, 16:29:08.037, 1680380948037
105, 527.84, 420.36, 342.18, 0.00, 0.000, 0.000, 0.000, 16:29:08.066, 1680380948066
106, -35.39, -3.80, 4.89, 0.00, 0.000, 0.000, 0.000, 16:29:08.066, 1680380948066
107, -530.42, -265.38, -251.60, 0.00, 0.000, 0.000, 0.000, 16:29:08.067, 1680380948067
108, 207.20, 234.54, 160.25, 0.00, 0.000, 0.000, 0.000, 16:29:08.067, 1680380948067
109, 351.24, 244.07, 221.33, 0.00, 0.000, 0.000, 0.000, 16:29:08.068, 1680380948068
110, -512.00, -278.44, -244.98, 0.00, 0.000, 0.000, 0.000, 16:29:08.068, 1680380948068
111, -160.62, -2.04, -51.79, 0.00, 0.000, 0.000, 0.000, 16:29:08.069, 1680380948069
112, 581.09, 424.79, 362.95, 0.00, 0.000, 0.000, 0.000, 16:29:08.069, 1680380948069
113, -361.69, -200.68, -170.20, 0.00, 0.000, 0.000, 0.000, 16:29:08.096, 1680380948096
114, -415.57, -176.35, -187.05, 0.00, 0.000, 0.000, 0.000, 16:29:08.096, 1680380948096
115, 532.90, 427.81, 352.69, 0.00, 0.000, 0.000, 0.000, 16:29:08.097, 1680380948097
116, -32.54, -4.92, 6.90, 0.00, 0.000, 0.000, 0.000, 16:29:08.097, 1680380948097
117, -526.77, -270.88, -251.90, 0.00, 0.000, 0.000, 0.000, 16:29:08.126, 1680380948126
118, 214.10, 238.93, 165.47, 0.00, 0.000, 0.000, 0.000, 16:29:08.126, 1680380948126
119, 357.53, 253.84, 231.19, 0.00, 0.000, 0.000, 0.000, 16:29:08.127, 1680380948127
120, -507.36, -274.95, -237.19, 0.00, 0.000, 0.000, 0.000, 16:29:08.127, 1680380948127
121, -149.93, 0.79, -45.05, 0.00, 0.000, 0.000, 0.000, 16:29:08.128, 1680380948128
122, 594.24, 427.10, 371.41, 0.00, 0.000, 0.000, 0.000, 16:29:08.128, 1680380948128
123, -358.09, -208.77, -166.23, 0.00, 0.000, 0.000, 0.000, 16:29:08.129, 1680380948129
124, -415.21, -183.21, -191.93, 0.00, 0.000, 0.000, 0.000, 16:29:08.129, 1680380948129
125, 529.78, 417.04, 345.18, 0.00, 0.000, 0.000, 0.000, 16:29:08.156, 1680380948156
126, -44.25, -15.06, 1.94, 0.00, 0.000, 0.000, 0.000, 16:29:08.156, 1680380948156
127, -538.30, -271.87, -257.02, 0.00, 0.000, 0.000, 0.000, 16:29:08.157, 1680380948157
128, 208.86, 233.25, 161.79, 0.00, 0.000, 0.000, 0.000, 16:29:08.157, 1680380948157
129, 343.64, 237.68, 212.91, 0.00, 0.000, 0.000, 0.000, 16:29:08.186, 1680380948186
130, -520.99, -280.08, -247.61, 0.00, 0.000, 0.000, 0.000, 16:29:08.186, 1680380948186
131, -143.78, 6.95, -41.27, 0.00, 0.000, 0.000, 0.000, 16:29:08.187, 1680380948187
132, 596.12, 433.25, 378.14, 0.00, 0.000, 0.000, 0.000, 16:29:08.187, 1680380948187
133, -349.44, -185.34, -164.61, 0.00, 0.000, 0.000, 0.000, 16:29:08.188, 1680380948188
134, -419.03, -164.91, -202.51, 0.00, 0.000, 0.000, 0.000, 16:29:08.188, 1680380948188
135, 517.29, 439.25, 325.44, 0.00, 0.000, 0.000, 0.000, 16:29:08.189, 1680380948189
136, -48.72, 15.83, -18.90, 0.00, 0.000, 0.000, 0.000, 16:29:08.189, 1680380948189
137, -564.42, -274.88, -281.09, 0.00, 0.000, 0.000, 0.000, 16:29:08.216, 1680380948216
138, 176.05, 205.85, 137.42, 0.00, 0.000, 0.000, 0.000, 16:29:08.216, 1680380948216
139, 329.06, 212.73, 210.95, 0.00, 0.000, 0.000, 0.000, 16:29:08.217, 1680380948217
140, -516.06, -299.46, -242.77, 0.00, 0.000, 0.000, 0.000, 16:29:08.217, 1680380948217
141, -137.50, -6.23, -27.45, 0.00, 0.000, 0.000, 0.000, 16:29:08.246, 1680380948246
142, 612.52, 423.13, 379.97, 0.00, 0.000, 0.000, 0.000, 16:29:08.246, 1680380948246
143, -335.01, -191.66, -152.29, 0.00, 0.000, 0.000, 0.000, 16:29:08.247, 1680380948247
144, -403.69, -167.00, -175.31, 0.00, 0.000, 0.000, 0.000, 16:29:08.247, 1680380948247
145, 534.45, 422.27, 347.76, 0.00, 0.000, 0.000, 0.000, 16:29:08.248, 1680380948248
146, -23.64, -3.79, 1.41, 0.00, 0.000, 0.000, 0.000, 16:29:08.248, 1680380948248
147, -520.44, -267.26, -255.53, 0.00, 0.000, 0.000, 0.000, 16:29:08.249, 1680380948249
148, 220.69, 239.25, 166.25, 0.00, 0.000, 0.000, 0.000, 16:29:08.249, 1680380948249
149, 352.97, 241.97, 220.20, 0.00, 0.000, 0.000, 0.000, 16:29:08.276, 1680380948276
150, -512.60, -278.59, -237.49, 0.00, 0.000, 0.000, 0.000, 16:29:08.276, 1680380948276
151, -150.90, 8.74, -44.05, 0.00, 0.000, 0.000, 0.000, 16:29:08.277, 1680380948277
152, 579.96, 419.96, 366.22, 0.00, 0.000, 0.000, 0.000, 16:29:08.277, 1680380948277
153, -361.75, -203.68, -181.21, 0.00, 0.000, 0.000, 0.000, 16:29:08.306, 1680380948306
154, -417.31, -181.82, -204.99, 0.00, 0.000, 0.000, 0.000, 16:29:08.306, 1680380948306
155, 525.54, 414.39, 317.88, 0.00, 0.000, 0.000, 0.000, 16:29:08.307, 1680380948307
156, -40.69, -9.99, -17.87, 0.00, 0.000, 0.000, 0.000, 16:29:08.307, 1680380948307
157, -524.82, -270.94, -268.82, 0.00, 0.000, 0.000, 0.000, 16:29:08.308, 1680380948308
158, 217.59, 238.70, 154.89, 0.00, 0.000, 0.000, 0.000, 16:29:08.308, 1680380948308
159, 339.93, 232.86, 238.74, 0.00, 0.000, 0.000, 0.000, 16:29:08.310, 1680380948310
160, -519.53, -283.11, -202.54, 0.00, 0.000, 0.000, 0.000, 16:29:08.310, 1680380948310
161, -160.86, -5.48, 8.30, 0.00, 0.000, 0.000, 0.000, 16:29:08.336, 1680380948336
162, 578.26, 420.99, 423.59, 0.00, 0.000, 0.000, 0.000, 16:29:08.336, 1680380948336
163, -377.12, -204.21, -136.03, 0.00, 0.000, 0.000, 0.000, 16:29:08.337, 1680380948337
164, -427.01, -175.18, -191.59, 0.00, 0.000, 0.000, 0.000, 16:29:08.337, 1680380948337
165, 528.12, 421.26, 311.11, 0.00, 0.000, 0.000, 0.000, 16:29:08.366, 1680380948366
166, -25.03, -3.88, -47.48, 0.00, 0.000, 0.000, 0.000, 16:29:08.366, 1680380948366
167, -521.83, -262.83, -301.18, 0.00, 0.000, 0.000, 0.000, 16:29:08.367, 1680380948367
168, 223.30, 237.64, 125.58, 0.00, 0.000, 0.000, 0.000, 16:29:08.367, 1680380948367
169, 340.33, 241.65, 202.66, 0.00, 0.000, 0.000, 0.000, 16:29:08.368, 1680380948368
170, -522.52, -280.45, -237.38, 0.00, 0.000, 0.000, 0.000, 16:29:08.368, 1680380948368
171, -147.37, 0.50, -14.31, 0.00, 0.000, 0.000, 0.000, 16:29:08.369, 1680380948369
172, 587.23, 422.88, 406.20, 0.00, 0.000, 0.000, 0.000, 16:29:08.369, 1680380948369
173, -362.70, -206.26, -136.26, 0.00, 0.000, 0.000, 0.000, 16:29:08.396, 1680380948396
174, -413.53, -180.13, -175.75, 0.00, 0.000, 0.000, 0.000, 16:29:08.396, 1680380948396
175, 520.08, 415.91, 341.26, 0.00, 0.000, 0.000, 0.000, 16:29:08.397, 1680380948397
176, -43.41, -12.91, -11.57, 0.00, 0.000, 0.000, 0.000, 16:29:08.397, 1680380948397
177, -531.85, -259.72, -269.21, 0.00, 0.000, 0.000, 0.000, 16:29:08.426, 1680380948426
178, 210.43, 244.01, 139.05, 0.00, 0.000, 0.000, 0.000, 16:29:08.426, 1680380948426
179, 346.10, 249.76, 199.95, 0.00, 0.000, 0.000, 0.000, 16:29:08.427, 1680380948427
180, -507.46, -267.81, -255.93, 0.00, 0.000, 0.000, 0.000, 16:29:08.427, 1680380948427
181, -140.54, 12.73, -42.81, 0.00, 0.000, 0.000, 0.000, 16:29:08.428, 1680380948428
182, 602.07, 431.82, 385.03, 0.00, 0.000, 0.000, 0.000, 16:29:08.428, 1680380948428
183, -354.25, -196.06, -154.96, 0.00, 0.000, 0.000, 0.000, 16:29:08.429, 1680380948429
184, -403.52, -170.80, -175.92, 0.00, 0.000, 0.000, 0.000, 16:29:08.429, 1680380948429
185, 541.50, 426.28, 354.19, 0.00, 0.000, 0.000, 0.000, 16:29:08.457, 1680380948457
186, -30.99, -4.33, 5.11, 0.00, 0.000, 0.000, 0.000, 16:29:08.457, 1680380948457
187, -518.40, -262.11, -263.65, 0.00, 0.000, 0.000, 0.000, 16:29:08.457, 1680380948457
188, 218.56, 238.90, 142.34, 0.00, 0.000, 0.000, 0.000, 16:29:08.457, 1680380948457
189, 352.69, 243.64, 198.44, 0.00, 0.000, 0.000, 0.000, 16:29:08.487, 1680380948487
190, -513.13, -277.21, -261.90, 0.00, 0.000, 0.000, 0.000, 16:29:08.487, 1680380948487
191, -141.92, 2.90, -55.89, 0.00, 0.000, 0.000, 0.000, 16:29:08.488, 1680380948488
192, 597.61, 424.01, 372.74, 0.00, 0.000, 0.000, 0.000, 16:29:08.488, 1680380948488
193, -351.28, -203.32, -160.87, 0.00, 0.000, 0.000, 0.000, 16:29:08.489, 1680380948489
194, -404.80, -177.72, -180.78, 0.00, 0.000, 0.000, 0.000, 16:29:08.489, 1680380948489
195, 537.78, 416.52, 356.18, 0.00, 0.000, 0.000, 0.000, 16:29:08.489, 1680380948489
196, -46.96, -12.40, 2.49, 0.00, 0.000, 0.000, 0.000, 16:29:08.489, 1680380948489
197, -525.54, -267.43, -247.85, 0.00, 0.000, 0.000, 0.000, 16:29:08.516, 1680380948516
198, 215.94, 239.59, 165.40, 0.00, 0.000, 0.000, 0.000, 16:29:08.516, 1680380948516
199, 347.43, 243.68, 221.87, 0.00, 0.000, 0.000, 0.000, 16:29:08.517, 1680380948517
200, -512.21, -279.38, -250.22, 0.00, 0.000, 0.000, 0.000, 16:29:08.517, 1680380948517
0, -139.86, 7.70, -53.22, 0.00, 0.000, 0.000, 0.000, 16:29:08.518, 1680380948518
1, 593.99, 418.05, 363.28, 0.00, 0.000, 0.000, 0.000, 16:29:08.546, 1680380948546
2, -362.82, -205.36, -179.43, 0.00, 0.000, 0.000, 0.000, 16:29:08.546, 1680380948546
3, -404.43, -180.11, -209.40, 0.00, 0.000, 0.000, 0.000, 16:29:08.547, 1680380948547
4, 546.65, 420.67, 329.24, 0.00, 0.000, 0.000, 0.000, 16:29:08.547, 1680380948547
5, -20.82, -13.16, -14.55, 0.00, 0.000, 0.000, 0.000, 16:29:08.548, 1680380948548
6, -521.26, -268.46, -263.47, 0.00, 0.000, 0.000, 0.000, 16:29:08.548, 1680380948548
7, 228.55, 232.17, 167.32, 0.00, 0.000, 0.000, 0.000, 16:29:08.576, 1680380948576
8, 348.98, 234.89, 233.55, 0.00, 0.000, 0.000, 0.000, 16:29:08.576, 1680380948576
9, -516.10, -287.02, -213.83, 0.00, 0.000, 0.000, 0.000, 16:29:08.577, 1680380948577
10, -162.27, -1.75, -17.77, 0.00, 0.000, 0.000, 0.000, 16:29:08.577, 1680380948577
11, 571.83, 413.91, 375.01, 0.00, 0.000, 0.000, 0.000, 16:29:08.578, 1680380948578
12, -375.13, -206.86, -191.85, 0.00, 0.000, 0.000, 0.000, 16:29:08.578, 1680380948578
13, -420.78, -180.34, -233.70, 0.00, 0.000, 0.000, 0.000, 16:29:08.606, 1680380948606
14, 524.77, 415.63, 320.11, 0.00, 0.000, 0.000, 0.000, 16:29:08.606, 1680380948606
15, -38.01, -10.42, -20.45, 0.00, 0.000, 0.000, 0.000, 16:29:08.607, 1680380948607
16, -521.88, -266.49, -266.88, 0.00, 0.000, 0.000, 0.000, 16:29:08.607, 1680380948607
17, 223.20, 240.37, 149.88, 0.00, 0.000, 0.000, 0.000, 16:29:08.608, 1680380948608
18, 340.67, 242.78, 207.57, 0.00, 0.000, 0.000, 0.000, 16:29:08.608, 1680380948608
19, -516.53, -286.57, -250.63, 0.00, 0.000, 0.000, 0.000, 16:29:08.636, 1680380948636
20, -135.87, 4.04, -41.94, 0.00, 0.000, 0.000, 0.000, 16:29:08.636, 1680380948636
21, 592.12, 424.11, 383.59, 0.00, 0.000, 0.000, 0.000, 16:29:08.638, 1680380948638
22, -373.35, -215.01, -165.90, 0.00, 0.000, 0.000, 0.000, 16:29:08.638, 1680380948638
23, -418.11, -182.99, -199.05, 0.00, 0.000, 0.000, 0.000, 16:29:08.638, 1680380948638
24, 530.04, 416.83, 323.38, 0.00, 0.000, 0.000, 0.000, 16:29:08.638, 1680380948638
25, -46.77, -18.70, -20.62, 0.00, 0.000, 0.000, 0.000, 16:29:08.666, 1680380948666
26, -532.92, -274.73, -279.98, 0.00, 0.000, 0.000, 0.000, 16:29:08.666, 1680380948666
27, 212.11, 237.55, 139.95, 0.00, 0.000, 0.000, 0.000, 16:29:08.667, 1680380948667
28, 342.44, 240.76, 207.94, 0.00, 0.000, 0.000, 0.000, 16:29:08.667, 1680380948667
29, -508.63, -272.97, -248.71, 0.00, 0.000, 0.000, 0.000, 16:29:08.668, 1680380948668
30, -154.80, 11.53, -37.51, 0.00, 0.000, 0.000, 0.000, 16:29:08.668, 1680380948668
31, 593.48, 426.20, 378.81, 0.00, 0.000, 0.000, 0.000, 16:29:08.696, 1680380948696
32, -364.91, -208.21, -165.34, 0.00, 0.000, 0.000, 0.000, 16:29:08.696, 1680380948696
33, -417.99, -185.67, -192.13, 0.00, 0.000, 0.000, 0.000, 16:29:08.697, 1680380948697
34, 536.54, 422.51, 346.51, 0.00, 0.000, 0.000, 0.000, 16:29:08.697, 1680380948697
35, -34.26, -8.56, -3.44, 0.00, 0.000, 0.000, 0.000, 16:29:08.698, 1680380948698
36, -523.25, -268.96, -262.63, 0.00, 0.000, 0.000, 0.000, 16:29:08.698, 1680380948698
37, 232.38, 240.78, 153.86, 0.00, 0.000, 0.000, 0.000, 16:29:08.727, 1680380948727
38, 340.18, 239.60, 207.88, 0.00, 0.000, 0.000, 0.000, 16:29:08.727, 1680380948727
39, -509.00, -272.23, -255.04, 0.00, 0.000, 0.000, 0.000, 16:29:08.728, 1680380948728
40, -138.64, 8.03, -35.87, 0.00, 0.000, 0.000, 0.000, 16:29:08.728, 1680380948728
41, 597.08, 421.86, 369.20, 0.00, 0.000, 0.000, 0.000, 16:29:08.729, 1680380948729
42, -355.88, -201.74, -169.80, 0.00, 0.000, 0.000, 0.000, 16:29:08.729, 1680380948729
43, -407.71, -174.37, -189.68, 0.00, 0.000, 0.000, 0.000, 16:29:08.756, 1680380948756
44, 534.42, 418.47, 350.40, 0.00, 0.000, 0.000, 0.000, 16:29:08.756, 1680380948756
45, -38.53, -8.59, 0.04, 0.00, 0.000, 0.000, 0.000, 16:29:08.757, 1680380948757
46, -522.69, -265.73, -251.28, 0.00, 0.000, 0.000, 0.000, 16:29:08.757, 1680380948757
47, 227.04, 238.55, 168.63, 0.00, 0.000, 0.000, 0.000, 16:29:08.758, 1680380948758
48, 345.78, 239.64, 212.21, 0.00, 0.000, 0.000, 0.000, 16:29:08.758, 1680380948758
49, -499.42, -269.84, -243.50, 0.00, 0.000, 0.000, 0.000, 16:29:08.786, 1680380948786
50, -132.32, 8.73, -48.89, 0.00, 0.000, 0.000, 0.000, 16:29:08.786, 1680380948786
51, 597.26, 430.53, 369.27, 0.00, 0.000, 0.000, 0.000, 16:29:08.787, 1680380948787
52, -351.74, -199.12, -166.14, 0.00, 0.000, 0.000, 0.000, 16:29:08.787, 1680380948787
53, -396.37, -172.17, -183.16, 0.00, 0.000, 0.000, 0.000, 16:29:08.788, 1680380948788
54, 542.84, 419.99, 355.91, 0.00, 0.000, 0.000, 0.000, 16:29:08.788, 1680380948788
55, -32.39, -9.13, 6.24, 0.00, 0.000, 0.000, 0.000, 16:29:08.816, 1680380948816
56, -518.80, -268.54, -248.76, 0.00, 0.000, 0.000, 0.000, 16:29:08.816, 1680380948816
57, 221.38, 237.44, 165.15, 0.00, 0.000, 0.000, 0.000, 16:29:08.817, 1680380948817
58, 343.06, 239.79, 217.16, 0.00, 0.000, 0.000, 0.000, 16:29:08.817, 1680380948817
59, -515.96, -282.19, -251.58, 0.00, 0.000, 0.000, 0.000, 16:29:08.818, 1680380948818
60, -139.80, 10.87, -44.89, 0.00, 0.000, 0.000, 0.000, 16:29:08.818, 1680380948818
61, 597.51, 421.40, 371.04, 0.00, 0.000, 0.000, 0.000, 16:29:08.846, 1680380948846
62, -361.51, -201.48, -172.88, 0.00, 0.000, 0.000, 0.000, 16:29:08.846, 1680380948846
63, -417.49, -175.86, -188.80, 0.00, 0.000, 0.000, 0.000, 16:29:08.847, 1680380948847
64, 542.03, 427.03, 358.47, 0.00, 0.000, 0.000, 0.000, 16:29:08.847, 1680380948847
65, -44.78, -8.26, -0.22, 0.00, 0.000, 0.000, 0.000, 16:29:08.848, 1680380948848
66, -518.94, -259.29, -253.71, 0.00, 0.000, 0.000, 0.000, 16:29:08.848, 1680380948848
67, 215.45, 239.64, 168.72, 0.00, 0.000, 0.000, 0.000, 16:29:08.877, 1680380948877
68, 340.94, 235.53, 221.84, 0.00, 0.000, 0.000, 0.000, 16:29:08.877, 1680380948877
69, -509.04, -277.00, -243.47, 0.00, 0.000, 0.000, 0.000, 16:29:08.878, 1680380948878
70, -143.34, 13.38, -53.37, 0.00, 0.000, 0.000, 0.000, 16:29:08.878, 1680380948878
71, 584.42, 424.58, 363.71, 0.00, 0.000, 0.000, 0.000, 16:29:08.884, 1680380948884
72, -369.90, -203.34, -182.57, 0.00, 0.000, 0.000, 0.000, 16:29:08.884, 1680380948884
73, -420.50, -178.55, -195.13, 0.00, 0.000, 0.000, 0.000, 16:29:08.907, 1680380948907
74, 534.18, 419.66, 342.88, 0.00, 0.000, 0.000, 0.000, 16:29:08.907, 1680380948907
75, -33.61, -6.55, 2.69, 0.00, 0.000, 0.000, 0.000, 16:29:08.908, 1680380948908
76, -518.03, -260.84, -248.18, 0.00, 0.000, 0.000, 0.000, 16:29:08.908, 1680380948908
77, 225.19, 243.50, 169.72, 0.00, 0.000, 0.000, 0.000, 16:29:08.909, 1680380948909
78, 341.24, 244.23, 219.32, 0.00, 0.000, 0.000, 0.000, 16:29:08.909, 1680380948909
79, -517.68, -275.25, -243.90, 0.00, 0.000, 0.000, 0.000, 16:29:08.936, 1680380948936
80, -135.87, 8.33, -35.76, 0.00, 0.000, 0.000, 0.000, 16:29:08.936, 1680380948936
81, 588.39, 422.11, 370.72, 0.00, 0.000, 0.000, 0.000, 16:29:08.937, 1680380948937
82, -359.78, -207.93, -172.22, 0.00, 0.000, 0.000, 0.000, 16:29:08.937, 1680380948937
83, -401.76, -172.17, -190.60, 0.00, 0.000, 0.000, 0.000, 16:29:08.938, 1680380948938
84, 538.49, 416.61, 345.24, 0.00, 0.000, 0.000, 0.000, 16:29:08.938, 1680380948938
85, -61.57, -31.57, -9.53, 0.00, 0.000, 0.000, 0.000, 16:29:08.966, 1680380948966
86, -543.16, -274.10, -259.96, 0.00, 0.000, 0.000, 0.000, 16:29:08.966, 1680380948966
87, 218.51, 238.47, 162.85, 0.00, 0.000, 0.000, 0.000, 16:29:08.967, 1680380948967
88, 333.86, 232.17, 218.07, 0.00, 0.000, 0.000, 0.000, 16:29:08.967, 1680380948967
89, -520.34, -279.04, -254.66, 0.00, 0.000, 0.000, 0.000, 16:29:08.968, 1680380948968
90, -137.63, 14.31, -40.36, 0.00, 0.000, 0.000, 0.000, 16:29:08.968, 1680380948968
91, 585.93, 423.47, 368.99, 0.00, 0.000, 0.000, 0.000, 16:29:08.996, 1680380948996
92, -357.18, -199.19, -175.08, 0.00, 0.000, 0.000, 0.000, 16:29:08.996, 1680380948996
93, -387.44, -165.46, -179.22, 0.00, 0.000, 0.000, 0.000, 16:29:08.997, 1680380948997
94, 542.92, 443.23, 346.22, 0.00, 0.000, 0.000, 0.000, 16:29:08.997, 1680380948997
95, -55.45, 3.38, -20.67, 0.00, 0.000, 0.000, 0.000, 16:29:08.998, 1680380948998
96, -544.43, -244.51, -276.94, 0.00, 0.000, 0.000, 0.000, 16:29:08.998, 1680380948998
97, 198.71, 254.52, 134.70, 0.00, 0.000, 0.000, 0.000, 16:29:09.026, 1680380949026
98, 308.49, 212.11, 187.76, 0.00, 0.000, 0.000, 0.000, 16:29:09.027, 1680380949027
99, -545.43, -315.04, -271.50, 0.00, 0.000, 0.000, 0.000, 16:29:09.029, 1680380949029
100, -148.43, -21.01, -43.52, 0.00, 0.000, 0.000, 0.000, 16:29:09.029, 1680380949029
101, 592.78, 409.42, 377.96, 0.00, 0.000, 0.000, 0.000, 16:29:09.029, 1680380949029
102, -349.44, -213.55, -163.30, 0.00, 0.000, 0.000, 0.000, 16:29:09.029, 1680380949029
103, -385.43, -172.86, -184.87, 0.00, 0.000, 0.000, 0.000, 16:29:09.057, 1680380949057
104, 560.58, 427.91, 354.34, 0.00, 0.000, 0.000, 0.000, 16:29:09.057, 1680380949057
105, -33.43, -12.39, 9.88, 0.00, 0.000, 0.000, 0.000, 16:29:09.057, 1680380949057
106, -522.95, -265.96, -247.41, 0.00, 0.000, 0.000, 0.000, 16:29:09.057, 1680380949057
107, 231.19, 246.13, 172.22, 0.00, 0.000, 0.000, 0.000, 16:29:09.058, 1680380949058
108, 346.70, 237.92, 212.83, 0.00, 0.000, 0.000, 0.000, 16:29:09.058, 1680380949058
109, -510.72, -284.12, -246.29, 0.00, 0.000, 0.000, 0.000, 16:29:09.086, 1680380949086
110, -137.68, 11.22, -43.21, 0.00, 0.000, 0.000, 0.000, 16:29:09.086, 1680380949086
111, 585.37, 419.25, 368.01, 0.00, 0.000, 0.000, 0.000, 16:29:09.087, 1680380949087
112, -365.74, -207.62, -171.74, 0.00, 0.000, 0.000, 0.000, 16:29:09.087, 1680380949087
113, -404.89, -174.49, -188.11, 0.00, 0.000, 0.000, 0.000, 16:29:09.088, 1680380949088
114, 529.13, 422.91, 330.77, 0.00, 0.000, 0.000, 0.000, 16:29:09.088, 1680380949088
115, -45.48, -17.26, -12.65, 0.00, 0.000, 0.000, 0.000, 16:29:09.116, 1680380949116
116, -518.49, -264.54, -270.52, 0.00, 0.000, 0.000, 0.000, 16:29:09.116, 1680380949116
117, 230.65, 242.80, 146.42, 0.00, 0.000, 0.000, 0.000, 16:29:09.117, 1680380949117
118, 333.13, 231.32, 201.86, 0.00, 0.000, 0.000, 0.000, 16:29:09.117, 1680380949117
119, -521.40, -280.30, -239.51, 0.00, 0.000, 0.000, 0.000, 16:29:09.118, 1680380949118
120, -136.82, 15.69, 2.37, 0.00, 0.000, 0.000, 0.000, 16:29:09.118, 1680380949118
121, 596.72, 431.50, 431.70, 0.00, 0.000, 0.000, 0.000, 16:29:09.146, 1680380949146
122, -364.75, -205.06, -108.71, 0.00, 0.000, 0.000, 0.000, 16:29:09.146, 1680380949146
123, -409.81, -175.54, -144.33, 0.00, 0.000, 0.000, 0.000, 16:29:09.147, 1680380949147
124, 536.83, 424.02, 355.80, 0.00, 0.000, 0.000, 0.000, 16:29:09.147, 1680380949147
125, -41.15, -8.35, -25.99, 0.00, 0.000, 0.000, 0.000, 16:29:09.148, 1680380949148
126, -513.21, -259.79, -288.54, 0.00, 0.000, 0.000, 0.000, 16:29:09.148, 1680380949148
127, 239.77, 253.17, 126.78, 0.00, 0.000, 0.000, 0.000, 16:29:09.176, 1680380949176
128, 345.52, 233.68, 184.60, 0.00, 0.000, 0.000, 0.000, 16:29:09.176, 1680380949176
129, -507.01, -281.53, -256.05, 0.00, 0.000, 0.000, 0.000, 16:29:09.177, 1680380949177
130, -123.04, 15.68, -29.54, 0.00, 0.000, 0.000, 0.000, 16:29:09.177, 1680380949177
131, 592.51, 427.91, 397.47, 0.00, 0.000, 0.000, 0.000, 16:29:09.178, 1680380949178
132, -365.93, -204.79, -139.17, 0.00, 0.000, 0.000, 0.000, 16:29:09.178, 1680380949178
133, -409.25, -175.04, -169.88, 0.00, 0.000, 0.000, 0.000, 16:29:09.206, 1680380949206
134, 529.23, 419.08, 364.10, 0.00, 0.000, 0.000, 0.000, 16:29:09.206, 1680380949206
135, -63.19, -21.71, -8.65, 0.00, 0.000, 0.000, 0.000, 16:29:09.207, 1680380949207
136, -535.14, -287.15, -280.28, 0.00, 0.000, 0.000, 0.000, 16:29:09.207, 1680380949207
137, 207.37, 236.15, 141.30, 0.00, 0.000, 0.000, 0.000, 16:29:09.208, 1680380949208
138, 313.58, 227.33, 182.12, 0.00, 0.000, 0.000, 0.000, 16:29:09.208, 1680380949208
139, -538.54, -284.00, -272.92, 0.00, 0.000, 0.000, 0.000, 16:29:09.236, 1680380949236
140, -142.40, 16.87, -61.87, 0.00, 0.000, 0.000, 0.000, 16:29:09.236, 1680380949236
141, 585.48, 429.37, 370.25, 0.00, 0.000, 0.000, 0.000, 16:29:09.237, 1680380949237
142, -365.89, -202.58, -165.54, 0.00, 0.000, 0.000, 0.000, 16:29:09.237, 1680380949237
143, -411.58, -170.12, -176.74, 0.00, 0.000, 0.000, 0.000, 16:29:09.238, 1680380949238
144, 535.74, 429.92, 364.97, 0.00, 0.000, 0.000, 0.000, 16:29:09.238, 1680380949238
145, -42.26, -11.86, 6.85, 0.00, 0.000, 0.000, 0.000, 16:29:09.266, 1680380949266
146, -518.54, -265.79, -248.04, 0.00, 0.000, 0.000, 0.000, 16:29:09.266, 1680380949266
147, 234.56, 247.16, 158.24, 0.00, 0.000, 0.000, 0.000, 16:29:09.267, 1680380949267
148, 340.50, 234.41, 200.37, 0.00, 0.000, 0.000, 0.000, 16:29:09.267, 1680380949267
149, -509.88, -282.51, -259.82, 0.00, 0.000, 0.000, 0.000, 16:29:09.268, 1680380949268
150, -128.77, 15.97, -56.73, 0.00, 0.000, 0.000, 0.000, 16:29:09.268, 1680380949268
151, 585.11, 421.44, 355.28, 0.00, 0.000, 0.000, 0.000, 16:29:09.296, 1680380949296
152, -364.93, -203.89, -173.19, 0.00, 0.000, 0.000, 0.000, 16:29:09.296, 1680380949296
153, -400.52, -172.58, -179.86, 0.00, 0.000, 0.000, 0.000, 16:29:09.297, 1680380949297
154, 541.79, 435.08, 365.63, 0.00, 0.000, 0.000, 0.000, 16:29:09.297, 1680380949297
155, -46.66, -15.87, 14.84, 0.00, 0.000, 0.000, 0.000, 16:29:09.298, 1680380949298
156, -518.87, -265.13, -226.22, 0.00, 0.000, 0.000, 0.000, 16:29:09.298, 1680380949298
157, 237.52, 242.01, 185.94, 0.00, 0.000, 0.000, 0.000, 16:29:09.326, 1680380949326
158, 341.06, 230.74, 228.82, 0.00, 0.000, 0.000, 0.000, 16:29:09.326, 1680380949326
159, -511.23, -281.56, -232.58, 0.00, 0.000, 0.000, 0.000, 16:29:09.327, 1680380949327
160, -137.93, 7.84, -38.44, 0.00, 0.000, 0.000, 0.000, 16:29:09.327, 1680380949327
161, 585.49, 423.34, 368.35, 0.00, 0.000, 0.000, 0.000, 16:29:09.328, 1680380949328
162, -365.39, -200.87, -176.68, 0.00, 0.000, 0.000, 0.000, 16:29:09.328, 1680380949328
163, -400.99, -166.51, -190.18, 0.00, 0.000, 0.000, 0.000, 16:29:09.356, 1680380949356
164, 555.32, 430.28, 345.06, 0.00, 0.000, 0.000, 0.000, 16:29:09.356, 1680380949356
165, -34.29, -12.63, -5.31, 0.00, 0.000, 0.000, 0.000, 16:29:09.357, 1680380949357
166, -517.64, -264.81, -255.17, 0.00, 0.000, 0.000, 0.000, 16:29:09.357, 1680380949357
167, 238.78, 247.79, 171.66, 0.00, 0.000, 0.000, 0.000, 16:29:09.358, 1680380949358
168, 346.48, 237.36, 229.24, 0.00, 0.000, 0.000, 0.000, 16:29:09.358, 1680380949358
169, -509.88, -282.92, -220.71, 0.00, 0.000, 0.000, 0.000, 16:29:09.386, 1680380949386
170, -125.28, 9.16, -0.85, 0.00, 0.000, 0.000, 0.000, 16:29:09.386, 1680380949386
171, 587.28, 415.08, 408.62, 0.00, 0.000, 0.000, 0.000, 16:29:09.387, 1680380949387
172, -373.39, -208.25, -152.67, 0.00, 0.000, 0.000, 0.000, 16:29:09.387, 1680380949387
173, -408.68, -173.77, -190.93, 0.00, 0.000, 0.000, 0.000, 16:29:09.388, 1680380949388
174, 537.37, 425.34, 331.01, 0.00, 0.000, 0.000, 0.000, 16:29:09.388, 1680380949388
175, -43.59, -11.97, -28.56, 0.00, 0.000, 0.000, 0.000, 16:29:09.416, 1680380949416
176, -513.28, -260.81, -265.43, 0.00, 0.000, 0.000, 0.000, 16:29:09.416, 1680380949416
177, 241.58, 249.18, 162.20, 0.00, 0.000, 0.000, 0.000, 16:29:09.417, 1680380949417
178, 341.96, 234.82, 204.75, 0.00, 0.000, 0.000, 0.000, 16:29:09.417, 1680380949417
179, -512.49, -278.04, -253.78, 0.00, 0.000, 0.000, 0.000, 16:29:09.418, 1680380949418
180, -136.30, 9.28, -40.19, 0.00, 0.000, 0.000, 0.000, 16:29:09.418, 1680380949418
181, 587.44, 415.11, 376.49, 0.00, 0.000, 0.000, 0.000, 16:29:09.446, 1680380949446
182, -372.68, -214.31, -164.00, 0.00, 0.000, 0.000, 0.000, 16:29:09.446, 1680380949446
183, -405.21, -178.20, -173.46, 0.00, 0.000, 0.000, 0.000, 16:29:09.447, 1680380949447
184, 534.10, 421.17, 357.85, 0.00, 0.000, 0.000, 0.000, 16:29:09.447, 1680380949447
185, -59.69, -17.22, -10.86, 0.00, 0.000, 0.000, 0.000, 16:29:09.448, 1680380949448
186, -528.11, -264.91, -270.57, 0.00, 0.000, 0.000, 0.000, 16:29:09.448, 1680380949448
187, 223.13, 236.95, 147.44, 0.00, 0.000, 0.000, 0.000, 16:29:09.477, 1680380949477
188, 326.90, 226.27, 188.02, 0.00, 0.000, 0.000, 0.000, 16:29:09.477, 1680380949477
189, -528.86, -298.77, -274.07, 0.00, 0.000, 0.000, 0.000, 16:29:09.478, 1680380949478
190, -153.05, 0.53, -55.22, 0.00, 0.000, 0.000, 0.000, 16:29:09.478, 1680380949478
191, 562.97, 402.23, 364.11, 0.00, 0.000, 0.000, 0.000, 16:29:09.479, 1680380949479
192, -387.56, -219.81, -178.15, 0.00, 0.000, 0.000, 0.000, 16:29:09.479, 1680380949479
193, -415.09, -176.00, -181.50, 0.00, 0.000, 0.000, 0.000, 16:29:09.506, 1680380949506
194, 531.86, 424.36, 358.35, 0.00, 0.000, 0.000, 0.000, 16:29:09.506, 1680380949506
195, -59.39, -17.29, 0.94, 0.00, 0.000, 0.000, 0.000, 16:29:09.507, 1680380949507
196, -521.56, -261.83, -251.43, 0.00, 0.000, 0.000, 0.000, 16:29:09.507, 1680380949507
197, 231.72, 245.81, 169.33, 0.00, 0.000, 0.000, 0.000, 16:29:09.508, 1680380949508
198, 332.85, 236.71, 203.14, 0.00, 0.000, 0.000, 0.000, 16:29:09.508, 1680380949508
199, -515.45, -277.66, -257.43, 0.00, 0.000, 0.000, 0.000, 16:29:09.536, 1680380949536
200, -135.60, 18.38, -41.23, 0.00, 0.000, 0.000, 0.000, 16:29:09.536, 1680380949536
0, 586.57, 427.98, 364.05, 0.00, 0.000, 0.000, 0.000, 16:29:09.537, 1680380949537
1, -366.13, -202.32, -169.88, 0.00, 0.000, 0.000, 0.000, 16:29:09.538, 1680380949538
2, -405.95, -166.78, -185.01, 0.00, 0.000, 0.000, 0.000, 16:29:09.538, 1680380949538
3, 534.98, 425.22, 349.59, 0.00, 0.000, 0.000, 0.000, 16:29:09.539, 1680380949539
4, -55.83, -18.99, -7.01, 0.00, 0.000, 0.000, 0.000, 16:29:09.539, 1680380949539
5, -527.89, -264.07, -252.69, 0.00, 0.000, 0.000, 0.000, 16:29:09.566, 1680380949566
6, 234.33, 247.41, 166.47, 0.00, 0.000, 0.000, 0.000, 16:29:09.566, 1680380949566
7, 330.24, 231.85, 206.64, 0.00, 0.000, 0.000, 0.000, 16:29:09.567, 1680380949567
8, -521.31, -280.04, -247.07, 0.00, 0.000, 0.000, 0.000, 16:29:09.567, 1680380949567
9, -135.18, 20.50, -41.85, 0.00, 0.000, 0.000, 0.000, 16:29:09.596, 1680380949596
10, 587.70, 429.72, 367.86, 0.00, 0.000, 0.000, 0.000, 16:29:09.596, 1680380949596
11, -375.08, -206.98, -180.84, 0.00, 0.000, 0.000, 0.000, 16:29:09.597, 1680380949597
12, -399.44, -168.67, -188.80, 0.00, 0.000, 0.000, 0.000, 16:29:09.597, 1680380949597
13, 544.80, 424.22, 348.22, 0.00, 0.000, 0.000, 0.000, 16:29:09.598, 1680380949598
14, -53.68, -17.24, -8.94, 0.00, 0.000, 0.000, 0.000, 16:29:09.598, 1680380949598
15, -524.84, -265.98, -258.22, 0.00, 0.000, 0.000, 0.000, 16:29:09.599, 1680380949599
16, 235.20, 244.58, 166.28, 0.00, 0.000, 0.000, 0.000, 16:29:09.599, 1680380949599
17, 330.70, 231.83, 200.94, 0.00, 0.000, 0.000, 0.000, 16:29:09.626, 1680380949626
18, -517.60, -273.56, -254.09, 0.00, 0.000, 0.000, 0.000, 16:29:09.626, 1680380949626
19, -129.50, 13.15, -39.72, 0.00, 0.000, 0.000, 0.000, 16:29:09.627, 1680380949627
20, 579.69, 416.09, 360.91, 0.00, 0.000, 0.000, 0.000, 16:29:09.627, 1680380949627
21, -375.64, -210.77, -181.17, 0.00, 0.000, 0.000, 0.000, 16:29:09.656, 1680380949656
22, -404.94, -171.69, -185.59, 0.00, 0.000, 0.000, 0.000, 16:29:09.656, 1680380949656
23, 539.20, 422.35, 343.78, 0.00, 0.000, 0.000, 0.000, 16:29:09.657, 1680380949657
24, -50.06, -19.42, -2.15, 0.00, 0.000, 0.000, 0.000, 16:29:09.657, 1680380949657
25, -527.50, -264.55, -252.79, 0.00, 0.000, 0.000, 0.000, 16:29:09.658, 1680380949658
26, 228.02, 246.76, 171.17, 0.00, 0.000, 0.000, 0.000, 16:29:09.658, 1680380949658
27, 324.20, 227.72, 206.56, 0.00, 0.000, 0.000, 0.000, 16:29:09.659, 1680380949659
28, -520.42, -279.15, -251.24, 0.00, 0.000, 0.000, 0.000, 16:29:09.659, 1680380949659
29, -128.83, 23.93, -35.41, 0.00, 0.000, 0.000, 0.000, 16:29:09.686, 1680380949686
30, 587.61, 418.34, 356.24, 0.00, 0.000, 0.000, 0.000, 16:29:09.686, 1680380949686
31, -383.55, -208.92, -187.28, 0.00, 0.000, 0.000, 0.000, 16:29:09.688, 1680380949688
32, -411.34, -172.77, -192.33, 0.00, 0.000, 0.000, 0.000, 16:29:09.688, 1680380949688
33, 541.16, 424.89, 349.44, 0.00, 0.000, 0.000, 0.000, 16:29:09.716, 1680380949716
34, -42.37, -9.77, 8.44, 0.00, 0.000, 0.000, 0.000, 16:29:09.716, 1680380949716
35, -514.25, -259.58, -236.67, 0.00, 0.000, 0.000, 0.000, 16:29:09.717, 1680380949717
36, 240.84, 261.30, 180.39, 0.00, 0.000, 0.000, 0.000, 16:29:09.717, 1680380949717
37, 337.91, 237.82, 213.63, 0.00, 0.000, 0.000, 0.000, 16:29:09.718, 1680380949718
38, -518.55, -276.52, -248.59, 0.00, 0.000, 0.000, 0.000, 16:29:09.718, 1680380949718
39, -129.28, 20.14, -36.75, 0.00, 0.000, 0.000, 0.000, 16:29:09.719, 1680380949719
40, 597.65, 426.69, 374.08, 0.00, 0.000, 0.000, 0.000, 16:29:09.719, 1680380949719
41, -361.18, -206.81, -171.45, 0.00, 0.000, 0.000, 0.000, 16:29:09.746, 1680380949746
42, -390.68, -164.49, -179.91, 0.00, 0.000, 0.000, 0.000, 16:29:09.746, 1680380949746
43, 551.96, 427.35, 355.72, 0.00, 0.000, 0.000, 0.000, 16:29:09.747, 1680380949747
44, -44.11, -20.05, 8.33, 0.00, 0.000, 0.000, 0.000, 16:29:09.747, 1680380949747
45, -513.93, -259.26, -238.53, 0.00, 0.000, 0.000, 0.000, 16:29:09.776, 1680380949776
46, 240.34, 243.92, 178.59, 0.00, 0.000, 0.000, 0.000, 16:29:09.776, 1680380949776
47, 330.87, 228.18, 206.33, 0.00, 0.000, 0.000, 0.000, 16:29:09.778, 1680380949778
48, -510.09, -276.57, -247.01, 0.00, 0.000, 0.000, 0.000, 16:29:09.778, 1680380949778
49, -117.34, 18.46, -38.75, 0.00, 0.000, 0.000, 0.000, 16:29:09.778, 1680380949778
50, 594.97, 418.55, 369.46, 0.00, 0.000, 0.000, 0.000, 16:29:09.778, 1680380949778
51, -362.67, -207.89, -168.40, 0.00, 0.000, 0.000, 0.000, 16:29:09.779, 1680380949779
52, -401.69, -175.52, -191.31, 0.00, 0.000, 0.000, 0.000, 16:29:09.779, 1680380949779
53, 535.97, 430.18, 346.00, 0.00, 0.000, 0.000, 0.000, 16:29:09.806, 1680380949806
54, -74.32, -12.12, -30.85, 0.00, 0.000, 0.000, 0.000, 16:29:09.806, 1680380949806
55, -549.12, -256.53, -273.72, 0.00, 0.000, 0.000, 0.000, 16:29:09.814, 1680380949814
56, 203.41, 259.83, 141.09, 0.00, 0.000, 0.000, 0.000, 16:29:09.814, 1680380949814
57, 290.14, 217.75, 180.01, 0.00, 0.000, 0.000, 0.000, 16:29:09.836, 1680380949836
58, -552.16, -315.20, -266.82, 0.00, 0.000, 0.000, 0.000, 16:29:09.836, 1680380949836
59, -149.34, -8.42, -37.98, 0.00, 0.000, 0.000, 0.000, 16:29:09.837, 1680380949837
60, 585.37, 399.15, 371.87, 0.00, 0.000, 0.000, 0.000, 16:29:09.837, 1680380949837
61, -358.35, -214.64, -165.36, 0.00, 0.000, 0.000, 0.000, 16:29:09.838, 1680380949838
62, -380.41, -166.79, -170.66, 0.00, 0.000, 0.000, 0.000, 16:29:09.838, 1680380949838
63, 559.23, 432.28, 362.15, 0.00, 0.000, 0.000, 0.000, 16:29:09.839, 1680380949839
64, -41.66, -10.66, 1.95, 0.00, 0.000, 0.000, 0.000, 16:29:09.839, 1680380949839
65, -512.72, -262.17, -241.83, 0.00, 0.000, 0.000, 0.000, 16:29:09.866, 1680380949866
66, 234.94, 245.98, 170.60, 0.00, 0.000, 0.000, 0.000, 16:29:09.866, 1680380949866
67, 324.89, 228.92, 199.82, 0.00, 0.000, 0.000, 0.000, 16:29:09.867, 1680380949867
68, -527.05, -284.24, -255.67, 0.00, 0.000, 0.000, 0.000, 16:29:09.867, 1680380949867
69, -130.40, 18.37, -40.16, 0.00, 0.000, 0.000, 0.000, 16:29:09.896, 1680380949896
70, 583.29, 416.54, 368.25, 0.00, 0.000, 0.000, 0.000, 16:29:09.896, 1680380949896
71, -370.39, -208.36, -172.30, 0.00, 0.000, 0.000, 0.000, 16:29:09.897, 1680380949897
72, -403.59, -171.80, -185.26, 0.00, 0.000, 0.000, 0.000, 16:29:09.897, 1680380949897
73, 541.09, 419.90, 344.91, 0.00, 0.000, 0.000, 0.000, 16:29:09.898, 1680380949898
74, -58.35, -23.11, -15.99, 0.00, 0.000, 0.000, 0.000, 16:29:09.898, 1680380949898
75, -523.45, -269.77, -273.46, 0.00, 0.000, 0.000, 0.000, 16:29:09.899, 1680380949899
76, 231.60, 244.90, 140.01, 0.00, 0.000, 0.000, 0.000, 16:29:09.899, 1680380949899
77, 323.68, 223.01, 179.27, 0.00, 0.000, 0.000, 0.000, 16:29:09.926, 1680380949926
78, -521.80, -287.58, -257.81, 0.00, 0.000, 0.000, 0.000, 16:29:09.926, 1680380949926
79, -133.24, 13.50, -20.05, 0.00, 0.000, 0.000, 0.000, 16:29:09.927, 1680380949927
80, 571.26, 414.87, 406.50, 0.00, 0.000, 0.000, 0.000, 16:29:09.927, 1680380949927
81, -390.75, -216.91, -119.42, 0.00, 0.000, 0.000, 0.000, 16:29:09.956, 1680380949956
82, -407.00, -169.75, -125.58, 0.00, 0.000, 0.000, 0.000, 16:29:09.956, 1680380949956
83, 527.09, 417.88, 373.81, 0.00, 0.000, 0.000, 0.000, 16:29:09.957, 1680380949957
84, -70.00, -20.67, -24.92, 0.00, 0.000, 0.000, 0.000, 16:29:09.957, 1680380949957
85, -532.84, -264.75, -301.12, 0.00, 0.000, 0.000, 0.000, 16:29:09.958, 1680380949958
86, 241.35, 254.89, 123.83, 0.00, 0.000, 0.000, 0.000, 16:29:09.958, 1680380949958
87, 328.12, 232.61, 167.37, 0.00, 0.000, 0.000, 0.000, 16:29:09.959, 1680380949959
88, -521.89, -277.50, -272.92, 0.00, 0.000, 0.000, 0.000, 16:29:09.959, 1680380949959
89, -125.91, 16.43, -35.67, 0.00, 0.000, 0.000, 0.000, 16:29:09.986, 1680380949986
90, 597.46, 423.50, 388.87, 0.00, 0.000, 0.000, 0.000, 16:29:09.986, 1680380949986
91, -366.85, -211.15, -147.65, 0.00, 0.000, 0.000, 0.000, 16:29:09.987, 1680380949987
92, -403.95, -170.51, -162.73, 0.00, 0.000, 0.000, 0.000, 16:29:09.987, 1680380949987
93, 540.26, 422.60, 370.76, 0.00, 0.000, 0.000, 0.000, 16:29:10.016, 1680380950016
94, -57.77, -18.04, 2.07, 0.00, 0.000, 0.000, 0.000, 16:29:10.016, 1680380950016
95, -525.96, -263.13, -260.69, 0.00, 0.000, 0.000, 0.000, 16:29:10.017, 1680380950017
96, 233.26, 251.33, 162.24, 0.00, 0.000, 0.000, 0.000, 16:29:10.017, 1680380950017
97, 319.38, 234.44, 188.08, 0.00, 0.000, 0.000, 0.000, 16:29:10.018, 1680380950018
98, -525.87, -274.41, -269.56, 0.00, 0.000, 0.000, 0.000, 16:29:10.018, 1680380950018
99, -131.80, 18.45, -56.17, 0.00, 0.000, 0.000, 0.000, 16:29:10.019, 1680380950019
100, 586.27, 421.17, 358.99, 0.00, 0.000, 0.000, 0.000, 16:29:10.019, 1680380950019
101, -373.51, -206.39, -178.34, 0.00, 0.000, 0.000, 0.000, 16:29:10.046, 1680380950046
102, -405.82, -163.81, -179.35, 0.00, 0.000, 0.000, 0.000, 16:29:10.046, 1680380950046
103, 540.28, 429.02, 365.82, 0.00, 0.000, 0.000, 0.000, 16:29:10.047, 1680380950047
104, -58.57, -26.56, 2.40, 0.00, 0.000, 0.000, 0.000, 16:29:10.047, 1680380950047
105, -515.16, -258.53, -244.04, 0.00, 0.000, 0.000, 0.000, 16:29:10.076, 1680380950076
106, 235.70, 250.01, 167.92, 0.00, 0.000, 0.000, 0.000, 16:29:10.076, 1680380950076
107, 326.69, 227.38, 197.76, 0.00, 0.000, 0.000, 0.000, 16:29:10.077, 1680380950077
108, -515.45, -276.63, -264.29, 0.00, 0.000, 0.000, 0.000, 16:29:10.077, 1680380950077
109, -123.64, 18.41, -53.87, 0.00, 0.000, 0.000, 0.000, 16:29:10.078, 1680380950078
110, 581.28, 421.15, 353.89, 0.00, 0.000, 0.000, 0.000, 16:29:10.078, 1680380950078
111, -374.75, -209.62, -180.12, 0.00, 0.000, 0.000, 0.000, 16:29:10.079, 1680380950079
112, -401.94, -166.01, -181.11, 0.00, 0.000, 0.000, 0.000, 16:29:10.079, 1680380950079
113, 543.26, 423.13, 357.28, 0.00, 0.000, 0.000, 0.000, 16:29:10.106, 1680380950106
114, -58.40, -25.36, -0.76, 0.00, 0.000, 0.000, 0.000, 16:29:10.106, 1680380950106
115, -519.37, -260.81, -237.79, 0.00, 0.000, 0.000, 0.000, 16:29:10.107, 1680380950107
116, 241.31, 250.20, 186.86, 0.00, 0.000, 0.000, 0.000, 16:29:10.107, 1680380950107
117, 317.47, 226.43, 212.84, 0.00, 0.000, 0.000, 0.000, 16:29:10.137, 1680380950137
118, -529.87, -280.78, -250.74, 0.00, 0.000, 0.000, 0.000, 16:29:10.137, 1680380950137
119, -137.60, 14.08, -43.75, 0.00, 0.000, 0.000, 0.000, 16:29:10.137, 1680380950137
120, 572.14, 412.04, 353.37, 0.00, 0.000, 0.000, 0.000, 16:29:10.137, 1680380950137
121, -382.07, -215.43, -190.24, 0.00, 0.000, 0.000, 0.000, 16:29:10.138, 1680380950138
122, -405.04, -177.29, -197.87, 0.00, 0.000, 0.000, 0.000, 16:29:10.138, 1680380950138
123, 545.03, 421.79, 342.10, 0.00, 0.000, 0.000, 0.000, 16:29:10.139, 1680380950139
124, -60.73, -30.76, -23.95, 0.00, 0.000, 0.000, 0.000, 16:29:10.139, 1680380950139
125, -523.58, -271.56, -267.72, 0.00, 0.000, 0.000, 0.000, 16:29:10.166, 1680380950166
126, 245.39, 249.59, 161.85, 0.00, 0.000, 0.000, 0.000, 16:29:10.166, 1680380950166
127, 328.52, 218.15, 199.76, 0.00, 0.000, 0.000, 0.000, 16:29:10.167, 1680380950167
128, -515.27, -285.89, -248.70, 0.00, 0.000, 0.000, 0.000, 16:29:10.167, 1680380950167
129, -127.30, 14.13, -22.49, 0.00, 0.000, 0.000, 0.000, 16:29:10.196, 1680380950196
130, 580.44, 418.56, 399.63, 0.00, 0.000, 0.000, 0.000, 16:29:10.196, 1680380950196
131, -381.79, -215.28, -148.87, 0.00, 0.000, 0.000, 0.000, 16:29:10.197, 1680380950197
132, -411.91, -172.16, -178.51, 0.00, 0.000, 0.000, 0.000, 16:29:10.197, 1680380950197
133, 533.74, 422.92, 334.73, 0.00, 0.000, 0.000, 0.000, 16:29:10.198, 1680380950198
134, -75.62, -26.64, -38.62, 0.00, 0.000, 0.000, 0.000, 16:29:10.198, 1680380950198
135, -530.08, -258.40, -269.62, 0.00, 0.000, 0.000, 0.000, 16:29:10.205, 1680380950205
136, 234.42, 252.05, 158.80, 0.00, 0.000, 0.000, 0.000, 16:29:10.205, 1680380950205
137, 323.26, 224.33, 195.95, 0.00, 0.000, 0.000, 0.000, 16:29:10.226, 1680380950226
138, -528.17, -293.72, -262.53, 0.00, 0.000, 0.000, 0.000, 16:29:10.226, 1680380950226
139, -149.48, 5.05, -51.94, 0.00, 0.000, 0.000, 0.000, 16:29:10.227, 1680380950227
140, 564.76, 410.34, 352.03, 0.00, 0.000, 0.000, 0.000, 16:29:10.227, 1680380950227
141, -384.75, -213.38, -175.18, 0.00, 0.000, 0.000, 0.000, 16:29:10.256, 1680380950256
142, -409.88, -173.00, -178.68, 0.00, 0.000, 0.000, 0.000, 16:29:10.256, 1680380950256
143, 532.88, 418.68, 353.70, 0.00, 0.000, 0.000, 0.000, 16:29:10.257, 1680380950257
144, -68.31, -32.28, -19.34, 0.00, 0.000, 0.000, 0.000, 16:29:10.257, 1680380950257
145, -528.14, -268.51, -263.63, 0.00, 0.000, 0.000, 0.000, 16:29:10.258, 1680380950258
146, 228.67, 247.19, 150.46, 0.00, 0.000, 0.000, 0.000, 16:29:10.258, 1680380950258
147, 304.10, 217.07, 178.55, 0.00, 0.000, 0.000, 0.000, 16:29:10.259, 1680380950259
148, -528.87, -283.70, -268.40, 0.00, 0.000, 0.000, 0.000, 16:29:10.259, 1680380950259
149, -126.69, 21.58, -39.95, 0.00, 0.000, 0.000, 0.000, 16:29:10.286, 1680380950286
150, 575.90, 413.78, 364.40, 0.00, 0.000, 0.000, 0.000, 16:29:10.286, 1680380950286
151, -384.23, -211.83, -169.36, 0.00, 0.000, 0.000, 0.000, 16:29:10.287, 1680380950287
152, -413.65, -171.44, -176.86, 0.00, 0.000, 0.000, 0.000, 16:29:10.287, 1680380950287
153, 532.83, 422.35, 356.89, 0.00, 0.000, 0.000, 0.000, 16:29:10.316, 1680380950316
154, -59.94, -23.02, -3.91, 0.00, 0.000, 0.000, 0.000, 16:29:10.316, 1680380950316
155, -519.95, -263.46, -254.72, 0.00, 0.000, 0.000, 0.000, 16:29:10.317, 1680380950317
156, 242.83, 248.73, 168.88, 0.00, 0.000, 0.000, 0.000, 16:29:10.317, 1680380950317
157, 324.34, 229.26, 199.81, 0.00, 0.000, 0.000, 0.000, 16:29:10.318, 1680380950318
158, -513.40, -269.94, -254.70, 0.00, 0.000, 0.000, 0.000, 16:29:10.318, 1680380950318
159, -112.29, 27.55, -32.64, 0.00, 0.000, 0.000, 0.000, 16:29:10.319, 1680380950319
160, 595.49, 422.53, 366.49, 0.00, 0.000, 0.000, 0.000, 16:29:10.319, 1680380950319
161, -366.65, -209.94, -172.13, 0.00, 0.000, 0.000, 0.000, 16:29:10.346, 1680380950346
162, -394.03, -163.61, -180.55, 0.00, 0.000, 0.000, 0.000, 16:29:10.346, 1680380950346
163, 545.78, 434.67, 357.38, 0.00, 0.000, 0.000, 0.000, 16:29:10.347, 1680380950347
164, -46.76, -18.15, -4.18, 0.00, 0.000, 0.000, 0.000, 16:29:10.347, 1680380950347
165, -513.87, -248.28, -244.22, 0.00, 0.000, 0.000, 0.000, 16:29:10.376, 1680380950376
166, 244.06, 256.22, 178.72, 0.00, 0.000, 0.000, 0.000, 16:29:10.376, 1680380950376
167, 322.00, 229.10, 205.61, 0.00, 0.000, 0.000, 0.000, 16:29:10.378, 1680380950378
168, -517.87, -274.20, -243.81, 0.00, 0.000, 0.000, 0.000, 16:29:10.378, 1680380950378
169, -121.50, 25.82, -30.11, 0.00, 0.000, 0.000, 0.000, 16:29:10.378, 1680380950378
170, 578.16, 419.78, 364.29, 0.00, 0.000, 0.000, 0.000, 16:29:10.378, 1680380950378
171, -379.94, -209.53, -181.67, 0.00, 0.000, 0.000, 0.000, 16:29:10.379, 1680380950379
172, -406.01, -175.47, -193.61, 0.00, 0.000, 0.000, 0.000, 16:29:10.379, 1680380950379
173, 543.38, 424.41, 343.03, 0.00, 0.000, 0.000, 0.000, 16:29:10.406, 1680380950406
174, -55.87, -25.64, -15.18, 0.00, 0.000, 0.000, 0.000, 16:29:10.406, 1680380950406
175, -514.18, -267.85, -250.24, 0.00, 0.000, 0.000, 0.000, 16:29:10.407, 1680380950407
176, 249.97, 251.33, 178.52, 0.00, 0.000, 0.000, 0.000, 16:29:10.407, 1680380950407
177, 325.47, 229.70, 206.94, 0.00, 0.000, 0.000, 0.000, 16:29:10.436, 1680380950436
178, -506.58, -279.47, -243.86, 0.00, 0.000, 0.000, 0.000, 16:29:10.436, 1680380950436
179, -122.04, 19.89, -35.90, 0.00, 0.000, 0.000, 0.000, 16:29:10.437, 1680380950437
180, 589.02, 417.85, 363.00, 0.00, 0.000, 0.000, 0.000, 16:29:10.437, 1680380950437
181, -374.89, -210.80, -184.54, 0.00, 0.000, 0.000, 0.000, 16:29:10.438, 1680380950438
182, -400.66, -164.87, -191.08, 0.00, 0.000, 0.000, 0.000, 16:29:10.438, 1680380950438
183, 545.28, 430.15, 350.43, 0.00, 0.000, 0.000, 0.000, 16:29:10.439, 1680380950439
184, -68.61, -22.97, -18.89, 0.00, 0.000, 0.000, 0.000, 16:29:10.439, 1680380950439
185, -527.83, -261.95, -257.08, 0.00, 0.000, 0.000, 0.000, 16:29:10.466, 1680380950466
186, 245.91, 256.33, 179.24, 0.00, 0.000, 0.000, 0.000, 16:29:10.466, 1680380950466
187, 322.91, 232.05, 209.73, 0.00, 0.000, 0.000, 0.000, 16:29:10.474, 1680380950474
188, -523.41, -283.00, -255.41, 0.00, 0.000, 0.000, 0.000, 16:29:10.475, 1680380950475
189, -129.84, 15.67, -37.73, 0.00, 0.000, 0.000, 0.000, 16:29:10.496, 1680380950496
190, 582.70, 420.62, 365.94, 0.00, 0.000, 0.000, 0.000, 16:29:10.496, 1680380950496
191, -373.88, -209.42, -179.63, 0.00, 0.000, 0.000, 0.000, 16:29:10.497, 1680380950497
192, -398.43, -168.97, -189.09, 0.00, 0.000, 0.000, 0.000, 16:29:10.497, 1680380950497
193, 546.78, 426.68, 346.93, 0.00, 0.000, 0.000, 0.000, 16:29:10.498, 1680380950498
194, -63.70, -19.84, -13.30, 0.00, 0.000, 0.000, 0.000, 16:29:10.498, 1680380950498
195, -512.84, -256.56, -249.90, 0.00, 0.000, 0.000, 0.000, 16:29:10.499, 1680380950499
196, 247.36, 258.48, 186.14, 0.00, 0.000, 0.000, 0.000, 16:29:10.499, 1680380950499
197, 326.80, 230.27, 208.87, 0.00, 0.000, 0.000, 0.000, 16:29:10.526, 1680380950526
198, -507.46, -275.17, -243.49, 0.00, 0.000, 0.000, 0.000, 16:29:10.526, 1680380950526
199, -115.24, 21.70, -25.58, 0.00, 0.000, 0.000, 0.000, 16:29:10.528, 1680380950528
200, 587.38, 421.18, 372.48, 0.00, 0.000, 0.000, 0.000, 16:29:10.528, 1680380950528
0, -372.79, -208.99, -174.31, 0.00, 0.000, 0.000, 0.000, 16:29:10.528, 1680380950528
1, -398.38, -167.79, -184.96, 0.00, 0.000, 0.000, 0.000, 16:29:10.557, 1680380950557
2, 546.66, 428.35, 358.57, 0.00, 0.000, 0.000, 0.000, 16:29:10.557, 1680380950557
3, -62.19, -25.19, -11.53, 0.00, 0.000, 0.000, 0.000, 16:29:10.558, 1680380950558
4, -514.95, -259.61, -244.59, 0.00, 0.000, 0.000, 0.000, 16:29:10.558, 1680380950558
5, 247.11, 255.83, 180.65, 0.00, 0.000, 0.000, 0.000, 16:29:10.559, 1680380950559
6, 330.33, 227.17, 211.42, 0.00, 0.000, 0.000, 0.000, 16:29:10.559, 1680380950559
7, -512.39, -280.62, -241.20, 0.00, 0.000, 0.000, 0.000, 16:29:10.586, 1680380950586
8, -111.93, 25.00, -23.77, 0.00, 0.000, 0.000, 0.000, 16:29:10.586, 1680380950586
9, 588.28, 427.85, 370.74, 0.00, 0.000, 0.000, 0.000, 16:29:10.587, 1680380950587
10, -373.02, -200.83, -177.72, 0.00, 0.000, 0.000, 0.000, 16:29:10.587, 1680380950587
