%OpenBCI Raw EEG Data
%Number of channels = 4
%Sample Rate = 200.0 Hz
%First Column = SampleIndex
%Last Column = Timestamp 
%Other Columns = EEG data in microvolts followed by Accel Data (in G) interleaved with Aux Data
0, 489.44, 365.78, 341.40, 0.00, 0.000, 0.000, 0.000, 16:31:03.899, 1680381063899
1, -417.94, -237.46, -206.41, 0.00, 0.000, 0.000, 0.000, 16:31:03.900, 1680381063900
2, -309.57, -105.03, -125.29, 0.00, 0.000, 0.000, 0.000, 16:31:03.900, 1680381063900
3, 559.42, 447.66, 394.28, 0.00, 0.000, 0.000, 0.000, 16:31:03.929, 1680381063929
4, -165.09, -90.03, -89.44, 0.00, 0.000, 0.000, 0.000, 16:31:03.929, 1680381063929
5, -483.24, -235.42, -255.16, 0.00, 0.000, 0.000, 0.000, 16:31:03.930, 1680381063930
6, 341.08, 327.29, 250.84, 0.00, 0.000, 0.000, 0.000, 16:31:03.930, 1680381063930
7, 202.12, 152.51, 121.03, 0.00, 0.000, 0.000, 0.000, 16:31:03.931, 1680381063931
8, -494.04, -262.92, -272.05, 0.00, 0.000, 0.000, 0.000, 16:31:03.931, 1680381063931
9, 2.86, 113.52, 54.80, 0.00, 0.000, 0.000, 0.000, 16:31:03.932, 1680381063932
10, 503.39, 372.34, 332.02, 0.00, 0.000, 0.000, 0.000, 16:31:03.932, 1680381063932
11, -399.44, -226.45, -207.79, 0.00, 0.000, 0.000, 0.000, 16:31:03.959, 1680381063959
12, -297.72, -101.99, -127.22, 0.00, 0.000, 0.000, 0.000, 16:31:03.959, 1680381063959
13, 576.52, 447.55, 399.46, 0.00, 0.000, 0.000, 0.000, 16:31:03.960, 1680381063960
14, -142.92, -79.91, -76.57, 0.00, 0.000, 0.000, 0.000, 16:31:03.960, 1680381063960
15, -449.92, -230.15, -241.18, 0.00, 0.000, 0.000, 0.000, 16:31:03.989, 1680381063989
16, 361.36, 334.50, 255.76, 0.00, 0.000, 0.000, 0.000, 16:31:03.989, 1680381063989
17, 211.78, 153.08, 127.47, 0.00, 0.000, 0.000, 0.000, 16:31:03.990, 1680381063990
18, -487.58, -272.26, -272.22, 0.00, 0.000, 0.000, 0.000, 16:31:03.990, 1680381063990
19, 5.99, 103.23, 44.23, 0.00, 0.000, 0.000, 0.000, 16:31:03.991, 1680381063991
20, 501.99, 363.94, 322.57, 0.00, 0.000, 0.000, 0.000, 16:31:03.991, 1680381063991
21, -403.14, -238.33, -219.63, 0.00, 0.000, 0.000, 0.000, 16:31:03.992, 1680381063992
22, -307.61, -108.93, -139.22, 0.00, 0.000, 0.000, 0.000, 16:31:03.992, 1680381063992
23, 556.88, 441.89, 400.65, 0.00, 0.000, 0.000, 0.000, 16:31:04.019, 1680381064019
24, -162.61, -93.95, -82.95, 0.00, 0.000, 0.000, 0.000, 16:31:04.019, 1680381064019
25, -481.69, -246.63, -245.70, 0.00, 0.000, 0.000, 0.000, 16:31:04.020, 1680381064020
26, 340.94, 313.99, 258.45, 0.00, 0.000, 0.000, 0.000, 16:31:04.020, 1680381064020
27, 206.35, 145.58, 131.61, 0.00, 0.000, 0.000, 0.000, 16:31:04.049, 1680381064049
28, -510.38, -285.79, -272.17, 0.00, 0.000, 0.000, 0.000, 16:31:04.049, 1680381064049
29, -8.79, 94.07, 35.36, 0.00, 0.000, 0.000, 0.000, 16:31:04.050, 1680381064050
30, 514.25, 369.30, 328.19, 0.00, 0.000, 0.000, 0.000, 16:31:04.050, 1680381064050
31, -404.45, -243.30, -227.87, 0.00, 0.000, 0.000, 0.000, 16:31:04.051, 1680381064051
32, -313.01, -121.70, -151.99, 0.00, 0.000, 0.000, 0.000, 16:31:04.051, 1680381064051
33, 604.94, 463.91, 395.43, 0.00, 0.000, 0.000, 0.000, 16:31:04.052, 1680381064052
34, -158.99, -97.16, -82.93, 0.00, 0.000, 0.000, 0.000, 16:31:04.052, 1680381064052
35, -492.38, -254.40, -259.47, 0.00, 0.000, 0.000, 0.000, 16:31:04.079, 1680381064079
36, 383.45, 346.38, 269.77, 0.00, 0.000, 0.000, 0.000, 16:31:04.079, 1680381064079
37, 240.79, 161.40, 162.88, 0.00, 0.000, 0.000, 0.000, 16:31:04.080, 1680381064080
38, -525.92, -294.18, -257.86, 0.00, 0.000, 0.000, 0.000, 16:31:04.080, 1680381064080
39, 12.75, 112.95, 73.47, 0.00, 0.000, 0.000, 0.000, 16:31:04.109, 1680381064109
40, 556.00, 400.41, 378.12, 0.00, 0.000, 0.000, 0.000, 16:31:04.109, 1680381064109
41, 544.51, -251.33, -221.08, 0.00, 0.000, 0.000, 0.000, 16:31:04.110, 1680381064110
42, 643.34, -116.58, -162.97, 0.00, 0.000, 0.000, 0.000, 16:31:04.110, 1680381064110
43, 1601.29, 492.63, 404.51, 0.00, 0.000, 0.000, 0.000, 16:31:04.111, 1680381064111
44, 814.44, -89.53, -84.47, 0.00, 0.000, 0.000, 0.000, 16:31:04.111, 1680381064111
45, 472.62, -256.14, -257.35, 0.00, 0.000, 0.000, 0.000, 16:31:04.112, 1680381064112
46, 1369.35, 357.12, 281.42, 0.00, 0.000, 0.000, 0.000, 16:31:04.112, 1680381064112
47, 1221.40, 173.03, 151.65, 0.00, 0.000, 0.000, 0.000, 16:31:04.139, 1680381064139
48, 442.22, -296.57, -283.80, 0.00, 0.000, 0.000, 0.000, 16:31:04.139, 1680381064139
49, 982.22, 107.44, 31.19, 0.00, 0.000, 0.000, 0.000, 16:31:04.140, 1680381064140
50, 1552.04, 409.54, 350.58, 0.00, 0.000, 0.000, 0.000, 16:31:04.140, 1680381064140
51, 1521.53, -258.23, -239.54, 0.00, 0.000, 0.000, 0.000, 16:31:04.169, 1680381064169
52, 1621.26, -129.22, -164.34, 0.00, 0.000, 0.000, 0.000, 16:31:04.169, 1680381064169
53, 2595.82, 486.76, 420.46, 0.00, 0.000, 0.000, 0.000, 16:31:04.170, 1680381064170
54, 1806.27, -89.54, -75.02, 0.00, 0.000, 0.000, 0.000, 16:31:04.170, 1680381064170
55, 1442.60, -261.28, -268.46, 0.00, 0.000, 0.000, 0.000, 16:31:04.171, 1680381064171
56, 2337.65, 353.00, 261.01, 0.00, 0.000, 0.000, 0.000, 16:31:04.171, 1680381064171
57, 2200.86, 176.26, 149.18, 0.00, 0.000, 0.000, 0.000, 16:31:04.172, 1680381064172
58, 1403.62, -306.65, -290.71, 0.00, 0.000, 0.000, 0.000, 16:31:04.172, 1680381064172
59, 1939.43, 99.44, 31.41, 0.00, 0.000, 0.000, 0.000, 16:31:04.199, 1680381064199
60, 2519.34, 410.90, 361.16, 0.00, 0.000, 0.000, 0.000, 16:31:04.199, 1680381064199
61, 2501.75, -251.45, -227.54, 0.00, 0.000, 0.000, 0.000, 16:31:04.200, 1680381064200
62, 2599.84, -120.26, -155.93, 0.00, 0.000, 0.000, 0.000, 16:31:04.200, 1680381064200
63, 3572.08, 488.59, 423.84, 0.00, 0.000, 0.000, 0.000, 16:31:04.229, 1680381064229
64, 2791.59, -92.10, -74.97, 0.00, 0.000, 0.000, 0.000, 16:31:04.229, 1680381064229
65, 2430.54, -260.45, -262.99, 0.00, 0.000, 0.000, 0.000, 16:31:04.230, 1680381064230
66, 3321.63, 354.84, 266.87, 0.00, 0.000, 0.000, 0.000, 16:31:04.230, 1680381064230
67, 3195.09, 179.53, 158.90, 0.00, 0.000, 0.000, 0.000, 16:31:04.231, 1680381064231
68, 2396.00, -303.20, -279.19, 0.00, 0.000, 0.000, 0.000, 16:31:04.231, 1680381064231
69, 2935.58, 106.84, 41.21, 0.00, 0.000, 0.000, 0.000, 16:31:04.232, 1680381064232
70, 3514.28, 408.92, 365.09, 0.00, 0.000, 0.000, 0.000, 16:31:04.232, 1680381064232
71, 3485.40, -259.36, -233.02, 0.00, 0.000, 0.000, 0.000, 16:31:04.259, 1680381064259
72, 3576.22, -131.00, -163.86, 0.00, 0.000, 0.000, 0.000, 16:31:04.259, 1680381064259
73, 4551.25, 482.47, 409.40, 0.00, 0.000, 0.000, 0.000, 16:31:04.260, 1680381064260
74, 3778.17, -85.69, -78.57, 0.00, 0.000, 0.000, 0.000, 16:31:04.260, 1680381064260
75, 3412.52, -260.61, -269.98, 0.00, 0.000, 0.000, 0.000, 16:31:04.289, 1680381064289
76, 4287.10, 336.50, 255.21, 0.00, 0.000, 0.000, 0.000, 16:31:04.289, 1680381064289
77, 4166.83, 166.52, 152.93, 0.00, 0.000, 0.000, 0.000, 16:31:04.290, 1680381064290
78, 3375.46, -306.54, -289.45, 0.00, 0.000, 0.000, 0.000, 16:31:04.290, 1680381064290
79, 3900.34, 90.80, 26.64, 0.00, 0.000, 0.000, 0.000, 16:31:04.291, 1680381064291
80, 4491.23, 407.66, 362.08, 0.00, 0.000, 0.000, 0.000, 16:31:04.291, 1680381064291
81, 4473.12, -256.46, -224.10, 0.00, 0.000, 0.000, 0.000, 16:31:04.292, 1680381064292
82, 4552.98, -143.31, -164.51, 0.00, 0.000, 0.000, 0.000, 16:31:04.292, 1680381064292
83, 5514.80, 475.67, 406.40, 0.00, 0.000, 0.000, 0.000, 16:31:04.319, 1680381064319
84, 4750.63, -93.17, -72.31, 0.00, 0.000, 0.000, 0.000, 16:31:04.319, 1680381064319
85, 4378.76, -274.39, -268.57, 0.00, 0.000, 0.000, 0.000, 16:31:04.320, 1680381064320
86, 5255.06, 327.21, 253.30, 0.00, 0.000, 0.000, 0.000, 16:31:04.320, 1680381064320
87, 5139.74, 164.54, 156.28, 0.00, 0.000, 0.000, 0.000, 16:31:04.349, 1680381064349
88, 4345.52, -314.97, -288.52, 0.00, 0.000, 0.000, 0.000, 16:31:04.349, 1680381064349
89, 4878.34, 86.57, 31.24, 0.00, 0.000, 0.000, 0.000, 16:31:04.350, 1680381064350
90, 5457.02, 396.12, 356.62, 0.00, 0.000, 0.000, 0.000, 16:31:04.350, 1680381064350
91, 5429.62, -269.51, -237.59, 0.00, 0.000, 0.000, 0.000, 16:31:04.351, 1680381064351
92, 5508.69, -148.58, -170.32, 0.00, 0.000, 0.000, 0.000, 16:31:04.351, 1680381064351
93, 6478.73, 468.89, 404.00, 0.00, 0.000, 0.000, 0.000, 16:31:04.352, 1680381064352
94, 5717.10, -97.68, -70.49, 0.00, 0.000, 0.000, 0.000, 16:31:04.352, 1680381064352
95, 5335.56, -279.34, -273.90, 0.00, 0.000, 0.000, 0.000, 16:31:04.379, 1680381064379
96, 6221.64, 326.21, 256.79, 0.00, 0.000, 0.000, 0.000, 16:31:04.379, 1680381064379
97, 6122.78, 168.61, 158.49, 0.00, 0.000, 0.000, 0.000, 16:31:04.387, 1680381064387
98, 5331.13, -306.24, -282.06, 0.00, 0.000, 0.000, 0.000, 16:31:04.387, 1680381064387
99, 5852.29, 86.71, 27.76, 0.00, 0.000, 0.000, 0.000, 16:31:04.411, 1680381064411
100, 6456.79, 417.70, 373.74, 0.00, 0.000, 0.000, 0.000, 16:31:04.411, 1680381064411
101, 6428.49, -251.25, -227.67, 0.00, 0.000, 0.000, 0.000, 16:31:04.412, 1680381064412
102, 6505.63, -135.86, -171.38, 0.00, 0.000, 0.000, 0.000, 16:31:04.412, 1680381064412
103, 7481.29, 490.81, 415.73, 0.00, 0.000, 0.000, 0.000, 16:31:04.412, 1680381064412
104, 6719.91, -79.49, -67.28, 0.00, 0.000, 0.000, 0.000, 16:31:04.412, 1680381064412
105, 6339.38, -266.44, -262.80, 0.00, 0.000, 0.000, 0.000, 16:31:04.413, 1680381064413
106, 7216.72, 341.21, 257.38, 0.00, 0.000, 0.000, 0.000, 16:31:04.413, 1680381064413
107, 7116.13, 187.24, 165.37, 0.00, 0.000, 0.000, 0.000, 16:31:04.439, 1680381064439
108, 6318.09, -302.40, -280.37, 0.00, 0.000, 0.000, 0.000, 16:31:04.439, 1680381064439
109, 6830.78, 90.16, 27.42, 0.00, 0.000, 0.000, 0.000, 16:31:04.440, 1680381064440
110, 7440.09, 419.21, 370.82, 0.00, 0.000, 0.000, 0.000, 16:31:04.440, 1680381064440
111, 7418.26, -251.43, -221.88, 0.00, 0.000, 0.000, 0.000, 16:31:04.470, 1680381064470
112, 7493.04, -130.34, -158.00, 0.00, 0.000, 0.000, 0.000, 16:31:04.470, 1680381064470
113, 8470.05, 495.15, 420.53, 0.00, 0.000, 0.000, 0.000, 16:31:04.471, 1680381064471
114, 7714.52, -77.09, -59.53, 0.00, 0.000, 0.000, 0.000, 16:31:04.471, 1680381064471
115, 7332.99, -270.04, -260.49, 0.00, 0.000, 0.000, 0.000, 16:31:04.472, 1680381064472
116, 8199.93, 331.61, 257.16, 0.00, 0.000, 0.000, 0.000, 16:31:04.472, 1680381064472
117, 8107.94, 184.15, 169.96, 0.00, 0.000, 0.000, 0.000, 16:31:04.472, 1680381064472
118, 7302.46, -300.50, -282.26, 0.00, 0.000, 0.000, 0.000, 16:31:04.472, 1680381064472
119, 7820.82, 92.52, 27.92, 0.00, 0.000, 0.000, 0.000, 16:31:04.499, 1680381064499
120, 8424.22, 424.31, 373.31, 0.00, 0.000, 0.000, 0.000, 16:31:04.499, 1680381064499
121, 8407.81, -243.10, -216.15, 0.00, 0.000, 0.000, 0.000, 16:31:04.500, 1680381064500
122, 8477.58, -135.36, -159.99, 0.00, 0.000, 0.000, 0.000, 16:31:04.500, 1680381064500
123, 8478.08, 491.64, 428.19, 0.00, 0.000, 0.000, 0.000, 16:31:04.529, 1680381064529
124, 7742.66, -62.59, -37.94, 0.00, 0.000, 0.000, 0.000, 16:31:04.529, 1680381064529
125, 7350.61, -247.27, -233.95, 0.00, 0.000, 0.000, 0.000, 16:31:04.530, 1680381064530
126, 8216.63, 360.44, 272.87, 0.00, 0.000, 0.000, 0.000, 16:31:04.530, 1680381064530
127, 8116.58, 214.41, 170.93, 0.00, 0.000, 0.000, 0.000, 16:31:04.531, 1680381064531
128, 7293.37, -276.95, -296.28, 0.00, 0.000, 0.000, 0.000, 16:31:04.531, 1680381064531
129, 7792.85, 108.59, -4.64, 0.00, 0.000, 0.000, 0.000, 16:31:04.532, 1680381064532
130, 8398.08, 407.43, 347.88, 0.00, 0.000, 0.000, 0.000, 16:31:04.532, 1680381064532
131, 8368.70, -284.63, -235.80, 0.00, 0.000, 0.000, 0.000, 16:31:04.559, 1680381064559
132, 8449.58, -170.61, -167.09, 0.00, 0.000, 0.000, 0.000, 16:31:04.559, 1680381064559
133, 8463.05, 461.87, 422.12, 0.00, 0.000, 0.000, 0.000, 16:31:04.560, 1680381064560
134, 7736.10, -79.55, -36.61, 0.00, 0.000, 0.000, 0.000, 16:31:04.560, 1680381064560
135, 7341.53, -263.38, -247.17, 0.00, 0.000, 0.000, 0.000, 16:31:04.589, 1680381064589
136, 8206.32, 329.21, 259.64, 0.00, 0.000, 0.000, 0.000, 16:31:04.589, 1680381064589
137, 8121.49, 191.53, 179.50, 0.00, 0.000, 0.000, 0.000, 16:31:04.590, 1680381064590
138, 7308.43, -306.68, -278.57, 0.00, 0.000, 0.000, 0.000, 16:31:04.590, 1680381064590
139, 7796.65, 75.90, 9.86, 0.00, 0.000, 0.000, 0.000, 16:31:04.591, 1680381064591
140, 8423.52, 411.16, 359.62, 0.00, 0.000, 0.000, 0.000, 16:31:04.591, 1680381064591
141, 8396.85, -261.20, -229.39, 0.00, 0.000, 0.000, 0.000, 16:31:04.592, 1680381064592
142, 8455.15, -153.14, -177.79, 0.00, 0.000, 0.000, 0.000, 16:31:04.592, 1680381064592
143, 9430.53, 472.25, 401.80, 0.00, 0.000, 0.000, 0.000, 16:31:04.619, 1680381064619
144, 8688.32, -85.00, -65.73, 0.00, 0.000, 0.000, 0.000, 16:31:04.619, 1680381064619
145, 8283.34, -287.94, -276.61, 0.00, 0.000, 0.000, 0.000, 16:31:04.620, 1680381064620
146, 9149.49, 310.01, 235.35, 0.00, 0.000, 0.000, 0.000, 16:31:04.620, 1680381064620
147, 9090.81, 180.59, 164.67, 0.00, 0.000, 0.000, 0.000, 16:31:04.649, 1680381064649
148, 8279.76, -314.28, -303.02, 0.00, 0.000, 0.000, 0.000, 16:31:04.649, 1680381064649
149, 8766.50, 56.15, -10.22, 0.00, 0.000, 0.000, 0.000, 16:31:04.650, 1680381064650
150, 9397.65, 407.34, 360.88, 0.00, 0.000, 0.000, 0.000, 16:31:04.650, 1680381064650
151, 9380.17, -260.90, -204.51, 0.00, 0.000, 0.000, 0.000, 16:31:04.651, 1680381064651
152, 9420.92, -158.50, -127.45, 0.00, 0.000, 0.000, 0.000, 16:31:04.651, 1680381064651
153, 10397.57, 465.89, 461.35, 0.00, 0.000, 0.000, 0.000, 16:31:04.652, 1680381064652
154, 9662.44, -76.29, -7.54, 0.00, 0.000, 0.000, 0.000, 16:31:04.652, 1680381064652
155, 9251.58, -278.69, -252.84, 0.00, 0.000, 0.000, 0.000, 16:31:04.679, 1680381064679
156, 10115.94, 319.61, 218.42, 0.00, 0.000, 0.000, 0.000, 16:31:04.679, 1680381064679
157, 10063.62, 197.54, 136.61, 0.00, 0.000, 0.000, 0.000, 16:31:04.680, 1680381064680
158, 9255.01, -304.73, -328.34, 0.00, 0.000, 0.000, 0.000, 16:31:04.680, 1680381064680
159, 9743.44, 72.45, -20.24, 0.00, 0.000, 0.000, 0.000, 16:31:04.709, 1680381064709
160, 10389.89, 423.77, 360.88, 0.00, 0.000, 0.000, 0.000, 16:31:04.709, 1680381064709
161, 10371.41, -244.86, -218.72, 0.00, 0.000, 0.000, 0.000, 16:31:04.710, 1680381064710
162, 10411.61, -150.67, -174.99, 0.00, 0.000, 0.000, 0.000, 16:31:04.710, 1680381064710
163, 10411.61, 475.38, 408.03, 0.00, 0.000, 0.000, 0.000, 16:31:04.711, 1680381064711
164, 9681.06, -72.93, -51.40, 0.00, 0.000, 0.000, 0.000, 16:31:04.711, 1680381064711
165, 9260.87, -282.52, -275.88, 0.00, 0.000, 0.000, 0.000, 16:31:04.712, 1680381064712
166, 10115.31, 311.82, 243.53, 0.00, 0.000, 0.000, 0.000, 16:31:04.712, 1680381064712
167, 10070.72, 193.14, 179.17, 0.00, 0.000, 0.000, 0.000, 16:31:04.739, 1680381064739
168, 9245.35, -314.50, -290.23, 0.00, 0.000, 0.000, 0.000, 16:31:04.739, 1680381064739
169, 9730.85, 61.96, -5.46, 0.00, 0.000, 0.000, 0.000, 16:31:04.740, 1680381064740
170, 10374.92, 420.22, 362.28, 0.00, 0.000, 0.000, 0.000, 16:31:04.740, 1680381064740
171, 10354.72, -250.47, -236.28, 0.00, 0.000, 0.000, 0.000, 16:31:04.769, 1680381064769
172, 10396.47, -152.68, -199.86, 0.00, 0.000, 0.000, 0.000, 16:31:04.769, 1680381064769
173, 10397.60, 471.06, 390.52, 0.00, 0.000, 0.000, 0.000, 16:31:04.770, 1680381064770
174, 9686.63, -65.20, -53.29, 0.00, 0.000, 0.000, 0.000, 16:31:04.770, 1680381064770
175, 9269.28, -269.80, -265.54, 0.00, 0.000, 0.000, 0.000, 16:31:04.770, 1680381064770
176, 10126.82, 318.10, 242.25, 0.00, 0.000, 0.000, 0.000, 16:31:04.771, 1680381064771
177, 10086.40, 202.04, 183.93, 0.00, 0.000, 0.000, 0.000, 16:31:04.778, 1680381064778
178, 9271.19, -303.46, -281.09, 0.00, 0.000, 0.000, 0.000, 16:31:04.778, 1680381064778
179, 9751.95, 69.77, 2.92, 0.00, 0.000, 0.000, 0.000, 16:31:04.799, 1680381064799
180, 10397.44, 422.39, 368.22, 0.00, 0.000, 0.000, 0.000, 16:31:04.799, 1680381064799
181, 10379.63, -243.46, -222.78, 0.00, 0.000, 0.000, 0.000, 16:31:04.800, 1680381064800
182, 10415.79, -148.15, -185.91, 0.00, 0.000, 0.000, 0.000, 16:31:04.800, 1680381064800
183, 10422.47, 481.45, 404.54, 0.00, 0.000, 0.000, 0.000, 16:31:04.829, 1680381064829
184, 9697.18, -61.01, -49.23, 0.00, 0.000, 0.000, 0.000, 16:31:04.829, 1680381064829
185, 9273.46, -273.89, -263.00, 0.00, 0.000, 0.000, 0.000, 16:31:04.830, 1680381064830
186, 10128.36, 322.75, 252.36, 0.00, 0.000, 0.000, 0.000, 16:31:04.830, 1680381064830
187, 10099.33, 214.64, 207.05, 0.00, 0.000, 0.000, 0.000, 16:31:04.831, 1680381064831
188, 9263.72, -299.45, -261.34, 0.00, 0.000, 0.000, 0.000, 16:31:04.831, 1680381064831
189, 9743.65, 70.69, 21.17, 0.00, 0.000, 0.000, 0.000, 16:31:04.832, 1680381064832
190, 10401.76, 436.80, 395.89, 0.00, 0.000, 0.000, 0.000, 16:31:04.832, 1680381064832
191, 10376.46, -241.26, -206.79, 0.00, 0.000, 0.000, 0.000, 16:31:04.859, 1680381064859
192, 10409.49, -145.02, -173.82, 0.00, 0.000, 0.000, 0.000, 16:31:04.859, 1680381064859
193, 10410.57, 482.36, 411.09, 0.00, 0.000, 0.000, 0.000, 16:31:04.860, 1680381064860
194, 9711.75, -51.05, -35.67, 0.00, 0.000, 0.000, 0.000, 16:31:04.860, 1680381064860
195, 9287.97, -268.78, -268.77, 0.00, 0.000, 0.000, 0.000, 16:31:04.890, 1680381064890
196, 10132.66, 317.20, 237.50, 0.00, 0.000, 0.000, 0.000, 16:31:04.890, 1680381064890
197, 10109.98, 211.54, 200.33, 0.00, 0.000, 0.000, 0.000, 16:31:04.891, 1680381064891
198, 9272.93, -303.02, -281.95, 0.00, 0.000, 0.000, 0.000, 16:31:04.891, 1680381064891
199, 9729.87, 53.76, -10.19, 0.00, 0.000, 0.000, 0.000, 16:31:04.892, 1680381064892
200, 10389.26, 424.14, 370.95, 0.00, 0.000, 0.000, 0.000, 16:31:04.892, 1680381064892
0, -411.07, -246.15, -217.28, 0.00, 0.000, 0.000, 0.000, 16:31:04.892, 1680381064892
1, -383.27, -163.00, -171.50, 0.00, 0.000, 0.000, 0.000, 16:31:04.919, 1680381064919
2, 596.39, 469.22, 419.77, 0.00, 0.000, 0.000, 0.000, 16:31:04.919, 1680381064919
3, -101.20, -56.44, -24.28, 0.00, 0.000, 0.000, 0.000, 16:31:04.920, 1680381064920
4, -537.06, -274.53, -264.79, 0.00, 0.000, 0.000, 0.000, 16:31:04.920, 1680381064920
5, 299.39, 313.80, 220.81, 0.00, 0.000, 0.000, 0.000, 16:31:04.921, 1680381064921
6, 287.88, 211.38, 178.66, 0.00, 0.000, 0.000, 0.000, 16:31:04.921, 1680381064921
7, -546.79, -306.16, -287.07, 0.00, 0.000, 0.000, 0.000, 16:31:04.949, 1680381064949
8, -77.75, 58.76, -7.06, 0.00, 0.000, 0.000, 0.000, 16:31:04.949, 1680381064949
9, 594.53, 436.61, 384.21, 0.00, 0.000, 0.000, 0.000, 16:31:04.950, 1680381064950
10, 579.84, -237.48, -216.08, 0.00, 0.000, 0.000, 0.000, 16:31:04.950, 1680381064950
11, 598.82, -157.52, -193.18, 0.00, 0.000, 0.000, 0.000, 16:31:04.951, 1680381064951
12, 599.33, 471.84, 390.48, 0.00, 0.000, 0.000, 0.000, 16:31:04.951, 1680381064951
13, -92.95, -54.14, -53.55, 0.00, 0.000, 0.000, 0.000, 16:31:04.979, 1680381064979
14, -527.13, -276.81, -270.26, 0.00, 0.000, 0.000, 0.000, 16:31:04.979, 1680381064979
15, 315.52, 306.82, 236.93, 0.00, 0.000, 0.000, 0.000, 16:31:04.980, 1680381064980
16, 303.47, 212.21, 196.67, 0.00, 0.000, 0.000, 0.000, 16:31:04.980, 1680381064980
17, -542.62, -305.71, -278.25, 0.00, 0.000, 0.000, 0.000, 16:31:04.981, 1680381064981
18, -81.66, 49.23, -12.47, 0.00, 0.000, 0.000, 0.000, 16:31:04.981, 1680381064981
19, 585.95, 419.54, 368.29, 0.00, 0.000, 0.000, 0.000, 16:31:05.009, 1680381065009
20, 569.64, -242.66, -226.94, 0.00, 0.000, 0.000, 0.000, 16:31:05.009, 1680381065009
21, 581.68, -167.83, -198.56, 0.00, 0.000, 0.000, 0.000, 16:31:05.010, 1680381065010
22, 587.30, 476.10, 389.86, 0.00, 0.000, 0.000, 0.000, 16:31:05.010, 1680381065010
23, -93.50, -49.70, -39.10, 0.00, 0.000, 0.000, 0.000, 16:31:05.011, 1680381065011
24, -542.51, -282.24, -267.20, 0.00, 0.000, 0.000, 0.000, 16:31:05.011, 1680381065011
25, 302.02, 304.64, 230.14, 0.00, 0.000, 0.000, 0.000, 16:31:05.039, 1680381065039
26, 300.97, 212.95, 201.26, 0.00, 0.000, 0.000, 0.000, 16:31:05.039, 1680381065039
27, -537.86, -307.88, -275.44, 0.00, 0.000, 0.000, 0.000, 16:31:05.040, 1680381065040
28, -72.70, 58.57, 5.75, 0.00, 0.000, 0.000, 0.000, 16:31:05.040, 1680381065040
29, 601.70, 429.46, 383.43, 0.00, 0.000, 0.000, 0.000, 16:31:05.041, 1680381065041
30, 581.40, -244.66, -216.92, 0.00, 0.000, 0.000, 0.000, 16:31:05.041, 1680381065041
31, 593.05, -172.32, -187.92, 0.00, 0.000, 0.000, 0.000, 16:31:05.069, 1680381065069
32, 596.85, 468.17, 389.27, 0.00, 0.000, 0.000, 0.000, 16:31:05.069, 1680381065069
33, -87.77, -50.70, -41.22, 0.00, 0.000, 0.000, 0.000, 16:31:05.070, 1680381065070
34, -527.45, -279.91, -271.69, 0.00, 0.000, 0.000, 0.000, 16:31:05.070, 1680381065070
35, 305.89, 303.26, 230.26, 0.00, 0.000, 0.000, 0.000, 16:31:05.071, 1680381065071
36, 317.43, 219.96, 204.66, 0.00, 0.000, 0.000, 0.000, 16:31:05.071, 1680381065071
37, -524.77, -300.01, -271.53, 0.00, 0.000, 0.000, 0.000, 16:31:05.101, 1680381065101
38, -82.48, 54.34, -5.26, 0.00, 0.000, 0.000, 0.000, 16:31:05.101, 1680381065101
39, 608.00, 442.16, 398.33, 0.00, 0.000, 0.000, 0.000, 16:31:05.101, 1680381065101
40, 590.46, -230.67, -197.81, 0.00, 0.000, 0.000, 0.000, 16:31:05.101, 1680381065101
41, 574.91, -172.79, -191.88, 0.00, 0.000, 0.000, 0.000, 16:31:05.102, 1680381065102
42, 578.01, 461.98, 392.66, 0.00, 0.000, 0.000, 0.000, 16:31:05.102, 1680381065102
43, -93.76, -51.33, -37.93, 0.00, 0.000, 0.000, 0.000, 16:31:05.130, 1680381065130
44, -550.83, -293.95, -280.42, 0.00, 0.000, 0.000, 0.000, 16:31:05.130, 1680381065130
45, 287.35, 286.27, 211.87, 0.00, 0.000, 0.000, 0.000, 16:31:05.131, 1680381065131
46, 311.45, 215.11, 190.03, 0.00, 0.000, 0.000, 0.000, 16:31:05.131, 1680381065131
47, -535.20, -310.57, -282.82, 0.00, 0.000, 0.000, 0.000, 16:31:05.131, 1680381065131
48, -84.95, 47.48, -15.72, 0.00, 0.000, 0.000, 0.000, 16:31:05.131, 1680381065131
49, 596.99, 438.81, 380.88, 0.00, 0.000, 0.000, 0.000, 16:31:05.159, 1680381065159
50, 583.98, -237.61, -216.72, 0.00, 0.000, 0.000, 0.000, 16:31:05.159, 1680381065159
51, 587.69, -168.35, -193.95, 0.00, 0.000, 0.000, 0.000, 16:31:05.160, 1680381065160
52, 594.89, 470.15, 398.56, 0.00, 0.000, 0.000, 0.000, 16:31:05.160, 1680381065160
53, -77.38, -39.13, -27.79, 0.00, 0.000, 0.000, 0.000, 16:31:05.161, 1680381065161
54, -539.33, -284.73, -272.54, 0.00, 0.000, 0.000, 0.000, 16:31:05.161, 1680381065161
55, 290.78, 298.27, 222.18, 0.00, 0.000, 0.000, 0.000, 16:31:05.189, 1680381065189
56, 317.90, 223.76, 201.30, 0.00, 0.000, 0.000, 0.000, 16:31:05.189, 1680381065189
57, -541.02, -300.86, -280.79, 0.00, 0.000, 0.000, 0.000, 16:31:05.190, 1680381065190
58, -94.63, 44.03, -9.76, 0.00, 0.000, 0.000, 0.000, 16:31:05.190, 1680381065190
59, 600.46, 439.75, 394.17, 0.00, 0.000, 0.000, 0.000, 16:31:05.191, 1680381065191
60, 588.69, -228.62, -200.75, 0.00, 0.000, 0.000, 0.000, 16:31:05.191, 1680381065191
61, 589.20, -170.26, -189.08, 0.00, 0.000, 0.000, 0.000, 16:31:05.219, 1680381065219
62, 1563.58, 470.31, 390.43, 0.00, 0.000, 0.000, 0.000, 16:31:05.219, 1680381065219
63, 904.86, -39.76, -35.34, 0.00, 0.000, 0.000, 0.000, 16:31:05.220, 1680381065220
64, 439.56, -280.43, -276.90, 0.00, 0.000, 0.000, 0.000, 16:31:05.220, 1680381065220
65, 1269.73, 295.49, 215.38, 0.00, 0.000, 0.000, 0.000, 16:31:05.227, 1680381065227
66, 1309.33, 228.96, 208.34, 0.00, 0.000, 0.000, 0.000, 16:31:05.227, 1680381065227
67, 444.30, -302.52, -280.99, 0.00, 0.000, 0.000, 0.000, 16:31:05.249, 1680381065249
68, 872.92, 37.58, -22.20, 0.00, 0.000, 0.000, 0.000, 16:31:05.249, 1680381065249
69, 1583.89, 442.50, 388.71, 0.00, 0.000, 0.000, 0.000, 16:31:05.250, 1680381065250
70, 605.50, -224.82, -193.47, 0.00, 0.000, 0.000, 0.000, 16:31:05.250, 1680381065250
71, 585.50, -170.58, -186.76, 0.00, 0.000, 0.000, 0.000, 16:31:05.251, 1680381065251
72, 1565.51, 464.63, 390.68, 0.00, 0.000, 0.000, 0.000, 16:31:05.251, 1680381065251
73, 915.88, -33.43, -25.53, 0.00, 0.000, 0.000, 0.000, 16:31:05.279, 1680381065279
74, 442.52, -279.52, -276.76, 0.00, 0.000, 0.000, 0.000, 16:31:05.279, 1680381065279
75, 1259.13, 292.92, 216.88, 0.00, 0.000, 0.000, 0.000, 16:31:05.280, 1680381065280
76, 1317.78, 234.94, 223.20, 0.00, 0.000, 0.000, 0.000, 16:31:05.280, 1680381065280
77, 460.13, -295.50, -265.80, 0.00, 0.000, 0.000, 0.000, 16:31:05.280, 1680381065280
78, 887.67, 41.03, -7.18, 0.00, 0.000, 0.000, 0.000, 16:31:05.280, 1680381065280
79, 1595.34, 448.16, 400.31, 0.00, 0.000, 0.000, 0.000, 16:31:05.309, 1680381065309
80, 1585.88, -225.88, -191.56, 0.00, 0.000, 0.000, 0.000, 16:31:05.309, 1680381065309
81, 1577.22, -164.59, -188.25, 0.00, 0.000, 0.000, 0.000, 16:31:05.310, 1680381065310
82, 1582.46, 474.65, 397.56, 0.00, 0.000, 0.000, 0.000, 16:31:05.310, 1680381065310
83, 930.92, -31.25, -14.59, 0.00, 0.000, 0.000, 0.000, 16:31:05.310, 1680381065310
84, 460.31, -274.27, -272.33, 0.00, 0.000, 0.000, 0.000, 16:31:05.310, 1680381065310
85, 1271.41, 296.68, 221.63, 0.00, 0.000, 0.000, 0.000, 16:31:05.340, 1680381065340
86, 1328.62, 242.38, 222.94, 0.00, 0.000, 0.000, 0.000, 16:31:05.340, 1680381065340
87, 464.30, -295.96, -260.59, 0.00, 0.000, 0.000, 0.000, 16:31:05.341, 1680381065341
88, 892.22, 43.35, -5.62, 0.00, 0.000, 0.000, 0.000, 16:31:05.341, 1680381065341
89, 1604.48, 457.49, 400.54, 0.00, 0.000, 0.000, 0.000, 16:31:05.342, 1680381065342
90, 1586.95, -210.43, -202.78, 0.00, 0.000, 0.000, 0.000, 16:31:05.342, 1680381065342
91, 1556.39, -154.02, -212.04, 0.00, 0.000, 0.000, 0.000, 16:31:05.369, 1680381065369
92, 2521.77, 481.96, 358.62, 0.00, 0.000, 0.000, 0.000, 16:31:05.369, 1680381065369
93, 1883.78, -12.23, -53.57, 0.00, 0.000, 0.000, 0.000, 16:31:05.370, 1680381065370
94, 1387.90, -300.89, -298.99, 0.00, 0.000, 0.000, 0.000, 16:31:05.370, 1680381065370
95, 2193.05, 245.41, 183.88, 0.00, 0.000, 0.000, 0.000, 16:31:05.371, 1680381065371
96, 2281.82, 203.81, 217.59, 0.00, 0.000, 0.000, 0.000, 16:31:05.371, 1680381065371
97, 1435.42, -319.57, -265.77, 0.00, 0.000, 0.000, 0.000, 16:31:05.399, 1680381065399
98, 1865.25, 25.98, -3.27, 0.00, 0.000, 0.000, 0.000, 16:31:05.399, 1680381065399
99, 2594.17, 448.00, 412.63, 0.00, 0.000, 0.000, 0.000, 16:31:05.400, 1680381065400
100, 2578.03, -223.17, -186.25, 0.00, 0.000, 0.000, 0.000, 16:31:05.400, 1680381065400
101, 2538.18, -178.57, -196.61, 0.00, 0.000, 0.000, 0.000, 16:31:05.401, 1680381065401
102, 2538.19, 461.27, 383.55, 0.00, 0.000, 0.000, 0.000, 16:31:05.401, 1680381065401
103, 1903.58, -30.78, -21.45, 0.00, 0.000, 0.000, 0.000, 16:31:05.429, 1680381065429
104, 1416.45, -287.81, -279.35, 0.00, 0.000, 0.000, 0.000, 16:31:05.429, 1680381065429
105, 2222.56, 281.03, 201.36, 0.00, 0.000, 0.000, 0.000, 16:31:05.430, 1680381065430
106, 2289.34, 233.68, 210.97, 0.00, 0.000, 0.000, 0.000, 16:31:05.430, 1680381065430
107, 1427.15, -304.08, -273.18, 0.00, 0.000, 0.000, 0.000, 16:31:05.431, 1680381065431
108, 1838.98, 27.09, -26.43, 0.00, 0.000, 0.000, 0.000, 16:31:05.431, 1680381065431
109, 2564.41, 443.61, 398.19, 0.00, 0.000, 0.000, 0.000, 16:31:05.459, 1680381065459
110, 2553.80, -229.50, -202.34, 0.00, 0.000, 0.000, 0.000, 16:31:05.459, 1680381065459
111, 2524.01, -187.18, -210.70, 0.00, 0.000, 0.000, 0.000, 16:31:05.460, 1680381065460
112, 2530.71, 455.22, 367.03, 0.00, 0.000, 0.000, 0.000, 16:31:05.460, 1680381065460
113, 1902.65, -28.36, -40.22, 0.00, 0.000, 0.000, 0.000, 16:31:05.461, 1680381065461
114, 1420.31, -291.29, -279.24, 0.00, 0.000, 0.000, 0.000, 16:31:05.461, 1680381065461
115, 2223.13, 275.02, 221.61, 0.00, 0.000, 0.000, 0.000, 16:31:05.490, 1680381065490
116, 2300.01, 237.29, 260.93, 0.00, 0.000, 0.000, 0.000, 16:31:05.490, 1680381065490
117, 1422.06, -301.94, -215.16, 0.00, 0.000, 0.000, 0.000, 16:31:05.492, 1680381065492
118, 1835.79, 30.65, 24.60, 0.00, 0.000, 0.000, 0.000, 16:31:05.492, 1680381065492
119, 2563.43, 447.51, 418.37, 0.00, 0.000, 0.000, 0.000, 16:31:05.493, 1680381065493
120, 2555.34, -221.22, -204.39, 0.00, 0.000, 0.000, 0.000, 16:31:05.493, 1680381065493
121, 2528.95, -172.85, -227.01, 0.00, 0.000, 0.000, 0.000, 16:31:05.520, 1680381065520
122, 2539.19, 471.06, 353.77, 0.00, 0.000, 0.000, 0.000, 16:31:05.520, 1680381065520
123, 1916.66, -17.26, -37.85, 0.00, 0.000, 0.000, 0.000, 16:31:05.520, 1680381065520
124, 1425.42, -280.16, -291.64, 0.00, 0.000, 0.000, 0.000, 16:31:05.520, 1680381065520
125, 2224.08, 277.51, 200.84, 0.00, 0.000, 0.000, 0.000, 16:31:05.527, 1680381065527
126, 2316.30, 246.13, 229.59, 0.00, 0.000, 0.000, 0.000, 16:31:05.527, 1680381065527
127, 1440.91, -299.09, -261.70, 0.00, 0.000, 0.000, 0.000, 16:31:05.549, 1680381065549
128, 1839.73, 25.20, -19.52, 0.00, 0.000, 0.000, 0.000, 16:31:05.549, 1680381065549
129, 2573.72, 455.26, 405.90, 0.00, 0.000, 0.000, 0.000, 16:31:05.550, 1680381065550
130, 2558.94, -221.12, -196.82, 0.00, 0.000, 0.000, 0.000, 16:31:05.550, 1680381065550
131, 2511.56, -186.42, -204.43, 0.00, 0.000, 0.000, 0.000, 16:31:05.551, 1680381065551
132, 2519.78, 460.97, 381.61, 0.00, 0.000, 0.000, 0.000, 16:31:05.551, 1680381065551
133, 1906.86, -20.04, -18.87, 0.00, 0.000, 0.000, 0.000, 16:31:05.579, 1680381065579
134, 1411.99, -288.59, -287.32, 0.00, 0.000, 0.000, 0.000, 16:31:05.579, 1680381065579
135, 2204.16, 271.18, 180.16, 0.00, 0.000, 0.000, 0.000, 16:31:05.580, 1680381065580
136, 2304.46, 240.62, 216.79, 0.00, 0.000, 0.000, 0.000, 16:31:05.580, 1680381065580
137, 1424.94, -300.76, -282.89, 0.00, 0.000, 0.000, 0.000, 16:31:05.581, 1680381065581
138, 1827.63, 25.20, -33.32, 0.00, 0.000, 0.000, 0.000, 16:31:05.581, 1680381065581
139, 2567.65, 455.52, 397.72, 0.00, 0.000, 0.000, 0.000, 16:31:05.609, 1680381065609
140, 2564.73, -217.43, -192.62, 0.00, 0.000, 0.000, 0.000, 16:31:05.609, 1680381065609
141, 2528.99, -182.86, -205.60, 0.00, 0.000, 0.000, 0.000, 16:31:05.610, 1680381065610
142, 2537.89, 462.55, 387.27, 0.00, 0.000, 0.000, 0.000, 16:31:05.610, 1680381065610
143, 1929.28, -16.55, -9.27, 0.00, 0.000, 0.000, 0.000, 16:31:05.611, 1680381065611
144, 1430.44, -283.35, -278.22, 0.00, 0.000, 0.000, 0.000, 16:31:05.611, 1680381065611
145, 2216.51, 274.25, 188.59, 0.00, 0.000, 0.000, 0.000, 16:31:05.639, 1680381065639
146, 2321.14, 249.75, 216.59, 0.00, 0.000, 0.000, 0.000, 16:31:05.639, 1680381065639
147, 1434.82, -300.41, -281.24, 0.00, 0.000, 0.000, 0.000, 16:31:05.640, 1680381065640
148, 1835.40, 24.66, -29.30, 0.00, 0.000, 0.000, 0.000, 16:31:05.640, 1680381065640
149, 2580.64, 456.78, 405.75, 0.00, 0.000, 0.000, 0.000, 16:31:05.641, 1680381065641
150, 2574.74, -215.66, -185.87, 0.00, 0.000, 0.000, 0.000, 16:31:05.641, 1680381065641
151, 2518.81, -185.19, -193.46, 0.00, 0.000, 0.000, 0.000, 16:31:05.669, 1680381065669
152, 2523.14, 460.14, 398.91, 0.00, 0.000, 0.000, 0.000, 16:31:05.669, 1680381065669
153, 1930.04, -12.30, 6.10, 0.00, 0.000, 0.000, 0.000, 16:31:05.670, 1680381065670
154, 1425.39, -279.42, -264.74, 0.00, 0.000, 0.000, 0.000, 16:31:05.670, 1680381065670
155, 2209.60, 272.27, 200.30, 0.00, 0.000, 0.000, 0.000, 16:31:05.670, 1680381065670
156, 2321.97, 252.06, 231.44, 0.00, 0.000, 0.000, 0.000, 16:31:05.670, 1680381065670
157, 1436.18, -299.55, -276.97, 0.00, 0.000, 0.000, 0.000, 16:31:05.699, 1680381065699
158, 1835.45, 19.44, -38.98, 0.00, 0.000, 0.000, 0.000, 16:31:05.699, 1680381065699
159, 2581.68, 456.43, 399.87, 0.00, 0.000, 0.000, 0.000, 16:31:05.700, 1680381065700
160, 1606.70, -213.31, -192.55, 0.00, 0.000, 0.000, 0.000, 16:31:05.700, 1680381065700
161, 1548.48, -185.47, -205.67, 0.00, 0.000, 0.000, 0.000, 16:31:05.700, 1680381065700
162, 1556.51, 456.88, 388.69, 0.00, 0.000, 0.000, 0.000, 16:31:05.700, 1680381065700
163, 959.33, -6.09, -5.38, 0.00, 0.000, 0.000, 0.000, 16:31:05.729, 1680381065729
164, 445.57, -289.48, -275.41, 0.00, 0.000, 0.000, 0.000, 16:31:05.729, 1680381065729
165, 1228.94, 263.14, 198.06, 0.00, 0.000, 0.000, 0.000, 16:31:05.730, 1680381065730
166, 1339.75, 245.68, 244.16, 0.00, 0.000, 0.000, 0.000, 16:31:05.730, 1680381065730
167, 452.32, -308.57, -256.26, 0.00, 0.000, 0.000, 0.000, 16:31:05.731, 1680381065731
168, 838.70, 12.67, -25.34, 0.00, 0.000, 0.000, 0.000, 16:31:05.731, 1680381065731
169, 1586.59, 455.06, 395.86, 0.00, 0.000, 0.000, 0.000, 16:31:05.759, 1680381065759
170, 608.47, -215.13, -207.26, 0.00, 0.000, 0.000, 0.000, 16:31:05.759, 1680381065759
171, 554.48, -188.56, -221.65, 0.00, 0.000, 0.000, 0.000, 16:31:05.760, 1680381065760
172, 561.23, 454.79, 378.42, 0.00, 0.000, 0.000, 0.000, 16:31:05.760, 1680381065760
173, -27.88, -11.24, -2.32, 0.00, 0.000, 0.000, 0.000, 16:31:05.761, 1680381065761
174, -538.01, -283.75, -275.47, 0.00, 0.000, 0.000, 0.000, 16:31:05.761, 1680381065761
175, 241.90, 269.51, 187.15, 0.00, 0.000, 0.000, 0.000, 16:31:05.790, 1680381065790
176, 369.53, 261.05, 222.93, 0.00, 0.000, 0.000, 0.000, 16:31:05.790, 1680381065790
177, -523.89, -300.87, -281.89, 0.00, 0.000, 0.000, 0.000, 16:31:05.791, 1680381065791
178, -137.39, 8.08, -42.70, 0.00, 0.000, 0.000, 0.000, 16:31:05.791, 1680381065791
179, 624.26, 459.04, 401.83, 0.00, 0.000, 0.000, 0.000, 16:31:05.791, 1680381065791
180, 617.64, -224.76, -182.48, 0.00, 0.000, 0.000, 0.000, 16:31:05.791, 1680381065791
181, 554.20, -199.62, -212.37, 0.00, 0.000, 0.000, 0.000, 16:31:05.819, 1680381065819
182, 560.61, 452.44, 372.26, 0.00, 0.000, 0.000, 0.000, 16:31:05.819, 1680381065819
183, -31.95, -9.89, -16.23, 0.00, 0.000, 0.000, 0.000, 16:31:05.820, 1680381065820
184, -561.98, -306.64, -302.32, 0.00, 0.000, 0.000, 0.000, 16:31:05.820, 1680381065820
185, 210.02, 248.53, 168.70, 0.00, 0.000, 0.000, 0.000, 16:31:05.820, 1680381065820
186, 339.76, 247.32, 220.72, 0.00, 0.000, 0.000, 0.000, 16:31:05.821, 1680381065821
187, -544.90, -306.20, -266.05, 0.00, 0.000, 0.000, 0.000, 16:31:05.849, 1680381065849
188, -167.18, 1.08, -47.52, 0.00, 0.000, 0.000, 0.000, 16:31:05.849, 1680381065849
189, 598.95, 451.81, 397.75, 0.00, 0.000, 0.000, 0.000, 16:31:05.850, 1680381065850
190, -373.24, -222.14, -195.97, 0.00, 0.000, 0.000, 0.000, 16:31:05.850, 1680381065850
191, -429.83, -193.86, -216.45, 0.00, 0.000, 0.000, 0.000, 16:31:05.851, 1680381065851
192, -417.39, 452.70, 374.99, 0.00, 0.000, 0.000, 0.000, 16:31:05.851, 1680381065851
193, -994.07, -5.16, -4.04, 0.00, 0.000, 0.000, 0.000, 16:31:05.879, 1680381065879
194, -1510.13, -280.74, -276.21, 0.00, 0.000, 0.000, 0.000, 16:31:05.879, 1680381065879
195, -748.56, 257.02, 180.98, 0.00, 0.000, 0.000, 0.000, 16:31:05.881, 1680381065881
196, -602.07, 259.60, 240.07, 0.00, 0.000, 0.000, 0.000, 16:31:05.881, 1680381065881
197, -1501.57, -299.36, -274.98, 0.00, 0.000, 0.000, 0.000, 16:31:05.881, 1680381065881
198, -1123.57, 8.94, -43.01, 0.00, 0.000, 0.000, 0.000, 16:31:05.881, 1680381065881
199, -348.96, 464.22, 413.09, 0.00, 0.000, 0.000, 0.000, 16:31:05.910, 1680381065910
200, -349.70, -211.46, -187.47, 0.00, 0.000, 0.000, 0.000, 16:31:05.910, 1680381065910
0, -428.65, -186.83, -210.19, 0.00, 0.000, 0.000, 0.000, 16:31:05.911, 1680381065911
1, -426.53, 453.06, 375.56, 0.00, 0.000, 0.000, 0.000, 16:31:05.912, 1680381065912
2, -995.93, -0.15, 5.20, 0.00, 0.000, 0.000, 0.000, 16:31:05.912, 1680381065912
3, -1523.46, -285.62, -280.10, 0.00, 0.000, 0.000, 0.000, 16:31:05.913, 1680381065913
4, -753.63, 260.61, 191.35, 0.00, 0.000, 0.000, 0.000, 16:31:05.913, 1680381065913
5, -612.81, 264.53, 237.37, 0.00, 0.000, 0.000, 0.000, 16:31:05.940, 1680381065940
6, -1506.93, -303.28, -274.04, 0.00, 0.000, 0.000, 0.000, 16:31:05.940, 1680381065940
7, -1133.08, 3.50, -42.09, 0.00, 0.000, 0.000, 0.000, 16:31:05.941, 1680381065941
8, -360.64, 461.26, 398.56, 0.00, 0.000, 0.000, 0.000, 16:31:05.941, 1680381065941
9, -1325.54, -209.41, -179.58, 0.00, 0.000, 0.000, 0.000, 16:31:05.969, 1680381065969
10, -1408.58, -199.48, -221.66, 0.00, 0.000, 0.000, 0.000, 16:31:05.969, 1680381065969
11, -1406.51, 451.36, 371.23, 0.00, 0.000, 0.000, 0.000, 16:31:05.970, 1680381065970
12, -1966.35, 0.77, 6.37, 0.00, 0.000, 0.000, 0.000, 16:31:05.970, 1680381065970
13, -2500.84, -292.84, -280.30, 0.00, 0.000, 0.000, 0.000, 16:31:05.971, 1680381065971
14, -1734.76, 250.63, 178.94, 0.00, 0.000, 0.000, 0.000, 16:31:05.971, 1680381065971
15, -1587.77, 264.51, 244.07, 0.00, 0.000, 0.000, 0.000, 16:31:05.971, 1680381065971
16, -2485.46, -302.41, -271.29, 0.00, 0.000, 0.000, 0.000, 16:31:05.971, 1680381065971
17, -2121.47, 1.97, -56.50, 0.00, 0.000, 0.000, 0.000, 16:31:05.999, 1680381065999
18, -1335.53, 462.94, 412.23, 0.00, 0.000, 0.000, 0.000, 16:31:05.999, 1680381065999
19, -2307.37, -207.63, -179.73, 0.00, 0.000, 0.000, 0.000, 16:31:06.000, 1680381066000
20, -2390.53, -193.75, -213.37, 0.00, 0.000, 0.000, 0.000, 16:31:06.000, 1680381066000
21, -2381.31, 455.12, 378.90, 0.00, 0.000, 0.000, 0.000, 16:31:06.029, 1680381066029
22, -2933.76, 10.93, 15.52, 0.00, 0.000, 0.000, 0.000, 16:31:06.029, 1680381066029
23, -3471.01, -280.64, -275.29, 0.00, 0.000, 0.000, 0.000, 16:31:06.030, 1680381066030
24, -2705.79, 260.94, 190.45, 0.00, 0.000, 0.000, 0.000, 16:31:06.030, 1680381066030
25, -2541.45, 278.44, 249.83, 0.00, 0.000, 0.000, 0.000, 16:31:06.031, 1680381066031
26, -3456.46, -295.23, -270.52, 0.00, 0.000, 0.000, 0.000, 16:31:06.031, 1680381066031
27, -3095.58, -0.24, -45.07, 0.00, 0.000, 0.000, 0.000, 16:31:06.032, 1680381066032
28, -2312.20, 463.97, 411.92, 0.00, 0.000, 0.000, 0.000, 16:31:06.032, 1680381066032
29, -3284.30, -210.19, -189.44, 0.00, 0.000, 0.000, 0.000, 16:31:06.059, 1680381066059
30, -3370.68, -198.80, -223.96, 0.00, 0.000, 0.000, 0.000, 16:31:06.059, 1680381066059
31, -3365.84, 453.03, 375.44, 0.00, 0.000, 0.000, 0.000, 16:31:06.060, 1680381066060
32, -3924.01, 7.34, 8.88, 0.00, 0.000, 0.000, 0.000, 16:31:06.060, 1680381066060
33, -4473.66, -291.43, -284.49, 0.00, 0.000, 0.000, 0.000, 16:31:06.089, 1680381066089
34, -3710.39, 246.38, 176.33, 0.00, 0.000, 0.000, 0.000, 16:31:06.089, 1680381066089
35, -3534.09, 275.45, 247.96, 0.00, 0.000, 0.000, 0.000, 16:31:06.090, 1680381066090
36, -4446.46, -291.19, -266.61, 0.00, 0.000, 0.000, 0.000, 16:31:06.090, 1680381066090
37, -4087.28, -5.02, -52.70, 0.00, 0.000, 0.000, 0.000, 16:31:06.091, 1680381066091
38, -3292.21, 463.23, 415.67, 0.00, 0.000, 0.000, 0.000, 16:31:06.091, 1680381066091
39, -4269.92, -203.74, -180.28, 0.00, 0.000, 0.000, 0.000, 16:31:06.092, 1680381066092
40, -4363.71, -199.28, -214.71, 0.00, 0.000, 0.000, 0.000, 16:31:06.092, 1680381066092
41, -4354.05, 450.36, 375.17, 0.00, 0.000, 0.000, 0.000, 16:31:06.119, 1680381066119
42, -4897.55, 11.43, 14.63, 0.00, 0.000, 0.000, 0.000, 16:31:06.119, 1680381066119
43, -5444.26, -292.44, -283.55, 0.00, 0.000, 0.000, 0.000, 16:31:06.120, 1680381066120
44, -4687.13, 246.61, 172.48, 0.00, 0.000, 0.000, 0.000, 16:31:06.120, 1680381066120
45, -4501.45, 279.67, 249.68, 0.00, 0.000, 0.000, 0.000, 16:31:06.149, 1680381066149
46, -5418.36, -300.42, -269.38, 0.00, 0.000, 0.000, 0.000, 16:31:06.149, 1680381066149
47, -5071.52, -8.33, -53.24, 0.00, 0.000, 0.000, 0.000, 16:31:06.150, 1680381066150
48, -4273.27, 464.07, 404.00, 0.00, 0.000, 0.000, 0.000, 16:31:06.150, 1680381066150
49, -5240.87, -206.49, -185.38, 0.00, 0.000, 0.000, 0.000, 16:31:06.151, 1680381066151
50, -5346.31, -209.08, -219.97, 0.00, 0.000, 0.000, 0.000, 16:31:06.151, 1680381066151
51, -4373.17, 429.90, 361.16, 0.00, 0.000, 0.000, 0.000, 16:31:06.152, 1680381066152
52, -4907.37, 6.44, 15.19, 0.00, 0.000, 0.000, 0.000, 16:31:06.152, 1680381066152
53, -5452.27, -303.74, -275.27, 0.00, 0.000, 0.000, 0.000, 16:31:06.179, 1680381066179
54, -4695.22, 244.90, 174.87, 0.00, 0.000, 0.000, 0.000, 16:31:06.179, 1680381066179
55, -4502.04, 291.44, 250.48, 0.00, 0.000, 0.000, 0.000, 16:31:06.180, 1680381066180
56, -5421.77, -275.98, -280.77, 0.00, 0.000, 0.000, 0.000, 16:31:06.180, 1680381066180
57, -5089.01, 8.12, -79.78, 0.00, 0.000, 0.000, 0.000, 16:31:06.209, 1680381066209
58, -4301.07, 477.77, 367.92, 0.00, 0.000, 0.000, 0.000, 16:31:06.209, 1680381066209
59, -5280.07, -206.19, -210.81, 0.00, 0.000, 0.000, 0.000, 16:31:06.211, 1680381066211
60, -5382.13, -235.18, -244.62, 0.00, 0.000, 0.000, 0.000, 16:31:06.211, 1680381066211
61, -5371.58, 412.39, 356.49, 0.00, 0.000, 0.000, 0.000, 16:31:06.211, 1680381066211
62, -5877.16, -10.94, 27.96, 0.00, 0.000, 0.000, 0.000, 16:31:06.211, 1680381066211
63, -6417.05, -302.56, -259.91, 0.00, 0.000, 0.000, 0.000, 16:31:06.212, 1680381066212
64, -5658.96, 240.95, 184.30, 0.00, 0.000, 0.000, 0.000, 16:31:06.212, 1680381066212
65, -5472.22, 277.23, 260.86, 0.00, 0.000, 0.000, 0.000, 16:31:06.239, 1680381066239
66, -6387.52, -301.30, -263.54, 0.00, 0.000, 0.000, 0.000, 16:31:06.239, 1680381066239
67, -6052.36, -11.53, -55.81, 0.00, 0.000, 0.000, 0.000, 16:31:06.240, 1680381066240
68, -5256.42, 463.18, 405.55, 0.00, 0.000, 0.000, 0.000, 16:31:06.240, 1680381066240
69, -6219.75, -208.18, -182.47, 0.00, 0.000, 0.000, 0.000, 16:31:06.269, 1680381066269
70, -6324.70, -202.70, -213.15, 0.00, 0.000, 0.000, 0.000, 16:31:06.269, 1680381066269
71, -6324.24, 447.41, 368.48, 0.00, 0.000, 0.000, 0.000, 16:31:06.270, 1680381066270
72, -6848.17, 22.43, 24.14, 0.00, 0.000, 0.000, 0.000, 16:31:06.270, 1680381066270
73, -7410.51, -291.96, -276.91, 0.00, 0.000, 0.000, 0.000, 16:31:06.271, 1680381066271
74, -6666.93, 233.37, 174.49, 0.00, 0.000, 0.000, 0.000, 16:31:06.271, 1680381066271
75, -6465.68, 279.75, 259.76, 0.00, 0.000, 0.000, 0.000, 16:31:06.278, 1680381066278
76, -7382.71, -303.92, -280.48, 0.00, 0.000, 0.000, 0.000, 16:31:06.278, 1680381066278
77, -7036.90, -16.02, -74.02, 0.00, 0.000, 0.000, 0.000, 16:31:06.299, 1680381066299
78, -6223.98, 469.91, 395.66, 0.00, 0.000, 0.000, 0.000, 16:31:06.299, 1680381066299
79, -7181.80, -196.27, -187.37, 0.00, 0.000, 0.000, 0.000, 16:31:06.300, 1680381066300
80, -7303.71, -207.72, -226.74, 0.00, 0.000, 0.000, 0.000, 16:31:06.300, 1680381066300
81, -6334.11, 439.42, 385.31, 0.00, 0.000, 0.000, 0.000, 16:31:06.329, 1680381066329
82, -6853.12, 12.26, 60.22, 0.00, 0.000, 0.000, 0.000, 16:31:06.329, 1680381066329
83, -7418.67, -297.40, -226.40, 0.00, 0.000, 0.000, 0.000, 16:31:06.330, 1680381066330
84, -6674.83, 238.50, 211.94, 0.00, 0.000, 0.000, 0.000, 16:31:06.330, 1680381066330
85, -6472.33, 281.27, 275.20, 0.00, 0.000, 0.000, 0.000, 16:31:06.331, 1680381066331
86, -7385.61, -293.28, -277.84, 0.00, 0.000, 0.000, 0.000, 16:31:06.331, 1680381066331
87, -7050.55, -13.35, -93.91, 0.00, 0.000, 0.000, 0.000, 16:31:06.332, 1680381066332
88, -6231.38, 475.08, 370.11, 0.00, 0.000, 0.000, 0.000, 16:31:06.332, 1680381066332
89, -7190.99, -189.61, -211.29, 0.00, 0.000, 0.000, 0.000, 16:31:06.359, 1680381066359
90, -7296.83, -199.62, -237.47, 0.00, 0.000, 0.000, 0.000, 16:31:06.359, 1680381066359
91, -6324.08, 444.10, 362.49, 0.00, 0.000, 0.000, 0.000, 16:31:06.359, 1680381066359
92, -6828.92, 29.47, 38.09, 0.00, 0.000, 0.000, 0.000, 16:31:06.359, 1680381066359
93, -7396.64, -286.21, -271.15, 0.00, 0.000, 0.000, 0.000, 16:31:06.389, 1680381066389
94, -6659.67, 239.73, 172.89, 0.00, 0.000, 0.000, 0.000, 16:31:06.389, 1680381066389
95, -6446.74, 292.83, 274.38, 0.00, 0.000, 0.000, 0.000, 16:31:06.390, 1680381066390
96, -7378.41, -292.93, -269.33, 0.00, 0.000, 0.000, 0.000, 16:31:06.390, 1680381066390
97, -7051.17, -16.71, -67.96, 0.00, 0.000, 0.000, 0.000, 16:31:06.391, 1680381066391
98, -6236.92, 472.43, 409.08, 0.00, 0.000, 0.000, 0.000, 16:31:06.391, 1680381066391
99, -7195.16, -197.55, -181.93, 0.00, 0.000, 0.000, 0.000, 16:31:06.392, 1680381066392
100, -7319.88, -211.98, -237.23, 0.00, 0.000, 0.000, 0.000, 16:31:06.392, 1680381066392
101, -6341.16, 440.57, 342.57, 0.00, 0.000, 0.000, 0.000, 16:31:06.419, 1680381066419
102, -6841.94, 27.62, 17.21, 0.00, 0.000, 0.000, 0.000, 16:31:06.419, 1680381066419
103, -7416.20, -291.77, -285.37, 0.00, 0.000, 0.000, 0.000, 16:31:06.420, 1680381066420
104, -6677.59, 233.57, 153.54, 0.00, 0.000, 0.000, 0.000, 16:31:06.420, 1680381066420
105, -6454.96, 293.60, 268.32, 0.00, 0.000, 0.000, 0.000, 16:31:06.449, 1680381066449
106, -7380.33, -293.44, -263.60, 0.00, 0.000, 0.000, 0.000, 16:31:06.449, 1680381066449
107, -7046.22, -14.74, -67.20, 0.00, 0.000, 0.000, 0.000, 16:31:06.450, 1680381066450
108, -6223.57, 472.47, 408.41, 0.00, 0.000, 0.000, 0.000, 16:31:06.450, 1680381066450
109, -7179.33, -196.78, -179.06, 0.00, 0.000, 0.000, 0.000, 16:31:06.451, 1680381066451
110, -7299.40, -207.69, -231.74, 0.00, 0.000, 0.000, 0.000, 16:31:06.451, 1680381066451
111, -6325.91, 446.46, 354.05, 0.00, 0.000, 0.000, 0.000, 16:31:06.452, 1680381066452
112, -6827.71, 24.57, 24.57, 0.00, 0.000, 0.000, 0.000, 16:31:06.452, 1680381066452
113, -7400.33, -293.88, -284.32, 0.00, 0.000, 0.000, 0.000, 16:31:06.480, 1680381066480
114, -6669.59, 231.04, 156.83, 0.00, 0.000, 0.000, 0.000, 16:31:06.480, 1680381066480
115, -6435.29, 293.03, 277.94, 0.00, 0.000, 0.000, 0.000, 16:31:06.480, 1680381066480
116, -7376.56, -297.63, -254.95, 0.00, 0.000, 0.000, 0.000, 16:31:06.480, 1680381066480
117, -7052.50, -21.03, -57.61, 0.00, 0.000, 0.000, 0.000, 16:31:06.509, 1680381066509
118, -6235.23, 473.69, 420.36, 0.00, 0.000, 0.000, 0.000, 16:31:06.509, 1680381066509
119, -7187.50, -186.19, -154.71, 0.00, 0.000, 0.000, 0.000, 16:31:06.510, 1680381066510
120, -7318.53, -207.86, -220.84, 0.00, 0.000, 0.000, 0.000, 16:31:06.510, 1680381066510
121, -6346.42, 434.17, 361.21, 0.00, 0.000, 0.000, 0.000, 16:31:06.511, 1680381066511
122, -6829.27, 32.18, 33.23, 0.00, 0.000, 0.000, 0.000, 16:31:06.511, 1680381066511
123, -7404.28, -289.17, -286.47, 0.00, 0.000, 0.000, 0.000, 16:31:06.512, 1680381066512
124, -6678.47, 224.40, 151.99, 0.00, 0.000, 0.000, 0.000, 16:31:06.512, 1680381066512
125, -6437.07, 296.37, 259.01, 0.00, 0.000, 0.000, 0.000, 16:31:06.539, 1680381066539
126, -7365.56, -295.18, -272.59, 0.00, 0.000, 0.000, 0.000, 16:31:06.539, 1680381066539
127, -7056.45, -32.95, -86.52, 0.00, 0.000, 0.000, 0.000, 16:31:06.540, 1680381066540
128, -6226.65, 463.23, 401.23, 0.00, 0.000, 0.000, 0.000, 16:31:06.540, 1680381066540
129, -7164.37, -188.05, -168.73, 0.00, 0.000, 0.000, 0.000, 16:31:06.569, 1680381066569
130, -7300.58, -209.45, -214.67, 0.00, 0.000, 0.000, 0.000, 16:31:06.569, 1680381066569
131, -6332.48, 428.22, 376.13, 0.00, 0.000, 0.000, 0.000, 16:31:06.570, 1680381066570
132, -6824.82, 24.48, 62.48, 0.00, 0.000, 0.000, 0.000, 16:31:06.570, 1680381066570
133, -7414.60, -299.65, -266.17, 0.00, 0.000, 0.000, 0.000, 16:31:06.571, 1680381066571
134, -6696.18, 214.51, 144.41, 0.00, 0.000, 0.000, 0.000, 16:31:06.571, 1680381066571
135, -6460.20, 279.71, 241.16, 0.00, 0.000, 0.000, 0.000, 16:31:06.572, 1680381066572
136, -7395.36, -300.42, -289.52, 0.00, 0.000, 0.000, 0.000, 16:31:06.572, 1680381066572
137, -7085.09, -39.29, -92.01, 0.00, 0.000, 0.000, 0.000, 16:31:06.599, 1680381066599
138, -6248.02, 471.18, 403.74, 0.00, 0.000, 0.000, 0.000, 16:31:06.599, 1680381066599
139, -7188.12, -187.58, -170.09, 0.00, 0.000, 0.000, 0.000, 16:31:06.600, 1680381066600
140, -7319.75, -213.51, -232.26, 0.00, 0.000, 0.000, 0.000, 16:31:06.600, 1680381066600
141, -6349.04, 434.33, 344.03, 0.00, 0.000, 0.000, 0.000, 16:31:06.629, 1680381066629
142, -6818.73, 44.61, 35.42, 0.00, 0.000, 0.000, 0.000, 16:31:06.629, 1680381066629
143, -7414.48, -294.09, -281.12, 0.00, 0.000, 0.000, 0.000, 16:31:06.630, 1680381066630
144, -6691.66, 219.48, 156.28, 0.00, 0.000, 0.000, 0.000, 16:31:06.630, 1680381066630
145, -6438.36, 297.34, 276.78, 0.00, 0.000, 0.000, 0.000, 16:31:06.631, 1680381066631
146, -7371.80, -294.69, -265.19, 0.00, 0.000, 0.000, 0.000, 16:31:06.631, 1680381066631
147, -7068.07, -35.45, -86.38, 0.00, 0.000, 0.000, 0.000, 16:31:06.632, 1680381066632
148, -6232.29, 470.84, 399.62, 0.00, 0.000, 0.000, 0.000, 16:31:06.632, 1680381066632
149, -7179.90, -190.81, -177.59, 0.00, 0.000, 0.000, 0.000, 16:31:06.659, 1680381066659
150, -7328.32, -218.47, -238.74, 0.00, 0.000, 0.000, 0.000, 16:31:06.659, 1680381066659
151, -6359.65, 422.66, 341.66, 0.00, 0.000, 0.000, 0.000, 16:31:06.660, 1680381066660
152, -6824.71, 35.61, 37.66, 0.00, 0.000, 0.000, 0.000, 16:31:06.660, 1680381066660
153, -7426.92, -298.24, -284.08, 0.00, 0.000, 0.000, 0.000, 16:31:06.689, 1680381066689
154, -6703.77, 214.42, 147.98, 0.00, 0.000, 0.000, 0.000, 16:31:06.689, 1680381066689
155, -6431.75, 310.37, 279.39, 0.00, 0.000, 0.000, 0.000, 16:31:06.690, 1680381066690
156, -7367.29, -294.27, -267.13, 0.00, 0.000, 0.000, 0.000, 16:31:06.690, 1680381066690
157, -7070.17, -31.97, -76.56, 0.00, 0.000, 0.000, 0.000, 16:31:06.691, 1680381066691
158, -6222.41, 478.33, 417.28, 0.00, 0.000, 0.000, 0.000, 16:31:06.691, 1680381066691
159, -7161.82, -182.04, -162.86, 0.00, 0.000, 0.000, 0.000, 16:31:06.698, 1680381066698
160, -7310.53, -213.37, -229.97, 0.00, 0.000, 0.000, 0.000, 16:31:06.698, 1680381066698
161, -6338.52, 432.04, 349.68, 0.00, 0.000, 0.000, 0.000, 16:31:06.719, 1680381066719
162, -6794.54, 46.20, 48.75, 0.00, 0.000, 0.000, 0.000, 16:31:06.719, 1680381066719
163, -7403.93, -295.34, -275.99, 0.00, 0.000, 0.000, 0.000, 16:31:06.720, 1680381066720
164, -6685.82, 214.91, 151.50, 0.00, 0.000, 0.000, 0.000, 16:31:06.720, 1680381066720
165, -6425.18, 306.60, 281.06, 0.00, 0.000, 0.000, 0.000, 16:31:06.749, 1680381066749
166, -7371.38, -294.13, -268.35, 0.00, 0.000, 0.000, 0.000, 16:31:06.749, 1680381066749
167, -7076.08, -34.38, -75.21, 0.00, 0.000, 0.000, 0.000, 16:31:06.749, 1680381066749
168, -6226.71, 478.60, 420.00, 0.00, 0.000, 0.000, 0.000, 16:31:06.750, 1680381066750
169, -7171.93, -185.66, -158.74, 0.00, 0.000, 0.000, 0.000, 16:31:06.751, 1680381066751
170, -7323.65, -210.78, -223.87, 0.00, 0.000, 0.000, 0.000, 16:31:06.751, 1680381066751
171, -6353.68, 433.10, 352.83, 0.00, 0.000, 0.000, 0.000, 16:31:06.751, 1680381066751
172, -6811.25, 41.69, 37.03, 0.00, 0.000, 0.000, 0.000, 16:31:06.751, 1680381066751
173, -7403.70, -294.40, -271.03, 0.00, 0.000, 0.000, 0.000, 16:31:06.779, 1680381066779
174, -6702.02, 211.02, 141.42, 0.00, 0.000, 0.000, 0.000, 16:31:06.779, 1680381066779
175, -6420.60, 312.86, 281.23, 0.00, 0.000, 0.000, 0.000, 16:31:06.780, 1680381066780
176, -7365.30, -294.80, -263.27, 0.00, 0.000, 0.000, 0.000, 16:31:06.780, 1680381066780
177, -7072.14, -39.38, -89.48, 0.00, 0.000, 0.000, 0.000, 16:31:06.809, 1680381066809
178, -6222.14, 476.92, 413.81, 0.00, 0.000, 0.000, 0.000, 16:31:06.809, 1680381066809
179, -7157.07, -180.38, -155.92, 0.00, 0.000, 0.000, 0.000, 16:31:06.811, 1680381066811
180, -7306.46, -215.98, -228.11, 0.00, 0.000, 0.000, 0.000, 16:31:06.811, 1680381066811
181, -6346.11, 430.46, 355.92, 0.00, 0.000, 0.000, 0.000, 16:31:06.811, 1680381066811
182, -6798.04, 52.49, 52.32, 0.00, 0.000, 0.000, 0.000, 16:31:06.811, 1680381066811
183, -7399.15, -289.02, -275.68, 0.00, 0.000, 0.000, 0.000, 16:31:06.812, 1680381066812
184, -6696.54, 216.07, 143.49, 0.00, 0.000, 0.000, 0.000, 16:31:06.812, 1680381066812
185, -6420.01, 310.11, 281.56, 0.00, 0.000, 0.000, 0.000, 16:31:06.840, 1680381066840
186, -7362.54, -287.13, -260.54, 0.00, 0.000, 0.000, 0.000, 16:31:06.840, 1680381066840
187, -7074.00, -41.73, -81.92, 0.00, 0.000, 0.000, 0.000, 16:31:06.841, 1680381066841
188, -6229.85, 479.01, 410.28, 0.00, 0.000, 0.000, 0.000, 16:31:06.841, 1680381066841
189, -7156.62, -181.37, -156.99, 0.00, 0.000, 0.000, 0.000, 16:31:06.869, 1680381066869
190, -7315.47, -216.97, -232.06, 0.00, 0.000, 0.000, 0.000, 16:31:06.869, 1680381066869
191, -6358.86, 425.45, 344.12, 0.00, 0.000, 0.000, 0.000, 16:31:06.870, 1680381066870
192, -6800.31, 50.42, 44.13, 0.00, 0.000, 0.000, 0.000, 16:31:06.870, 1680381066870
193, -7408.71, -293.11, -283.09, 0.00, 0.000, 0.000, 0.000, 16:31:06.871, 1680381066871
194, -6710.99, 208.28, 132.01, 0.00, 0.000, 0.000, 0.000, 16:31:06.871, 1680381066871
195, -6421.05, 309.47, 279.65, 0.00, 0.000, 0.000, 0.000, 16:31:06.871, 1680381066871
196, -7361.33, -294.50, -263.37, 0.00, 0.000, 0.000, 0.000, 16:31:06.871, 1680381066871
197, -7079.12, -40.76, -86.44, 0.00, 0.000, 0.000, 0.000, 16:31:06.899, 1680381066899
198, -6229.59, 476.21, 408.42, 0.00, 0.000, 0.000, 0.000, 16:31:06.899, 1680381066899
199, -7165.09, -181.18, -156.94, 0.00, 0.000, 0.000, 0.000, 16:31:06.900, 1680381066900
200, -7326.64, -220.28, -235.08, 0.00, 0.000, 0.000, 0.000, 16:31:06.900, 1680381066900
0, 499.94, 431.74, 350.37, 0.00, 0.000, 0.000, 0.000, 16:31:06.901, 1680381066901
1, 63.77, 51.79, 50.22, 0.00, 0.000, 0.000, 0.000, 16:31:06.929, 1680381066929
2, -549.57, -296.50, -280.00, 0.00, 0.000, 0.000, 0.000, 16:31:06.929, 1680381066929
3, 149.34, 209.34, 135.99, 0.00, 0.000, 0.000, 0.000, 16:31:06.931, 1680381066931
4, 453.61, 323.66, 292.96, 0.00, 0.000, 0.000, 0.000, 16:31:06.931, 1680381066931
5, -492.35, -282.05, -253.69, 0.00, 0.000, 0.000, 0.000, 16:31:06.931, 1680381066931
6, -215.07, -42.38, -84.56, 0.00, 0.000, 0.000, 0.000, 16:31:06.931, 1680381066931
7, 634.63, 472.84, 416.01, 0.00, 0.000, 0.000, 0.000, 16:31:06.960, 1680381066960
8, -290.15, -173.60, -150.86, 0.00, 0.000, 0.000, 0.000, 16:31:06.960, 1680381066960
9, -457.67, -222.96, -230.50, 0.00, 0.000, 0.000, 0.000, 16:31:06.962, 1680381066962
10, 501.30, 422.04, 346.63, 0.00, 0.000, 0.000, 0.000, 16:31:06.962, 1680381066962
11, 77.60, 57.12, 60.95, 0.00, 0.000, 0.000, 0.000, 16:31:06.962, 1680381066962
12, -545.74, -297.92, -277.22, 0.00, 0.000, 0.000, 0.000, 16:31:06.962, 1680381066962
13, 148.79, 205.39, 141.40, 0.00, 0.000, 0.000, 0.000, 16:31:06.990, 1680381066990
14, 455.20, 322.54, 294.26, 0.00, 0.000, 0.000, 0.000, 16:31:06.990, 1680381066990
15, -498.41, -295.70, -260.39, 0.00, 0.000, 0.000, 0.000, 16:31:06.991, 1680381066991
16, -221.56, -46.68, -87.89, 0.00, 0.000, 0.000, 0.000, 16:31:06.991, 1680381066991
17, 639.58, 456.16, 408.42, 0.00, 0.000, 0.000, 0.000, 16:31:06.992, 1680381066992
18, -296.85, -173.20, -150.16, 0.00, 0.000, 0.000, 0.000, 16:31:06.992, 1680381066992
19, -463.00, -207.45, -239.84, 0.00, 0.000, 0.000, 0.000, 16:31:07.019, 1680381067019
20, 482.90, 440.33, 328.97, 0.00, 0.000, 0.000, 0.000, 16:31:07.019, 1680381067019
21, 55.33, 74.21, 34.76, 0.00, 0.000, 0.000, 0.000, 16:31:07.020, 1680381067020
22, -580.40, -290.31, -316.51, 0.00, 0.000, 0.000, 0.000, 16:31:07.020, 1680381067020
23, 103.67, 191.78, 100.29, 0.00, 0.000, 0.000, 0.000, 16:31:07.021, 1680381067021
24, 410.30, 284.66, 266.25, 0.00, 0.000, 0.000, 0.000, 16:31:07.021, 1680381067021
25, -524.90, -326.20, -270.69, 0.00, 0.000, 0.000, 0.000, 16:31:07.049, 1680381067049
26, -233.16, -67.67, -87.90, 0.00, 0.000, 0.000, 0.000, 16:31:07.049, 1680381067049
27, 651.72, 478.90, 434.83, 0.00, 0.000, 0.000, 0.000, 16:31:07.050, 1680381067050
28, -269.88, -169.29, -131.39, 0.00, 0.000, 0.000, 0.000, 16:31:07.050, 1680381067050
29, -451.00, -221.11, -220.67, 0.00, 0.000, 0.000, 0.000, 16:31:07.051, 1680381067051
30, 507.87, 419.78, 351.91, 0.00, 0.000, 0.000, 0.000, 16:31:07.051, 1680381067051
31, 92.61, 64.24, 67.94, 0.00, 0.000, 0.000, 0.000, 16:31:07.079, 1680381067079
32, -544.14, -298.25, -277.94, 0.00, 0.000, 0.000, 0.000, 16:31:07.079, 1680381067079
33, 135.39, 195.21, 130.17, 0.00, 0.000, 0.000, 0.000, 16:31:07.080, 1680381067080
34, 460.15, 329.35, 295.35, 0.00, 0.000, 0.000, 0.000, 16:31:07.080, 1680381067080
35, -496.81, -284.98, -254.28, 0.00, 0.000, 0.000, 0.000, 16:31:07.081, 1680381067081
36, -231.24, -49.37, -90.15, 0.00, 0.000, 0.000, 0.000, 16:31:07.081, 1680381067081
37, 634.84, 478.10, 418.38, 0.00, 0.000, 0.000, 0.000, 16:31:07.110, 1680381067110
38, -281.79, -168.76, -146.35, 0.00, 0.000, 0.000, 0.000, 16:31:07.110, 1680381067110
39, -463.99, -224.42, -236.49, 0.00, 0.000, 0.000, 0.000, 16:31:07.111, 1680381067111
40, 482.78, 407.93, 328.09, 0.00, 0.000, 0.000, 0.000, 16:31:07.111, 1680381067111
41, 84.32, 55.60, 46.27, 0.00, 0.000, 0.000, 0.000, 16:31:07.118, 1680381067118
42, -557.33, -311.36, -297.35, 0.00, 0.000, 0.000, 0.000, 16:31:07.118, 1680381067118
43, 128.85, 193.05, 120.62, 0.00, 0.000, 0.000, 0.000, 16:31:07.140, 1680381067140
44, 456.48, 320.23, 301.09, 0.00, 0.000, 0.000, 0.000, 16:31:07.140, 1680381067140
45, -496.11, -285.86, -242.34, 0.00, 0.000, 0.000, 0.000, 16:31:07.141, 1680381067141
46, -241.61, -56.61, -74.14, 0.00, 0.000, 0.000, 0.000, 16:31:07.141, 1680381067141
47, 625.66, 476.17, 445.96, 0.00, 0.000, 0.000, 0.000, 16:31:07.141, 1680381067141
48, -287.93, -175.18, -125.89, 0.00, 0.000, 0.000, 0.000, 16:31:07.141, 1680381067141
49, -477.08, -226.95, -230.74, 0.00, 0.000, 0.000, 0.000, 16:31:07.170, 1680381067170
50, 475.68, 412.07, 325.24, 0.00, 0.000, 0.000, 0.000, 16:31:07.170, 1680381067170
51, 85.23, 71.38, 40.76, 0.00, 0.000, 0.000, 0.000, 16:31:07.171, 1680381067171
52, -548.49, -297.59, -312.40, 0.00, 0.000, 0.000, 0.000, 16:31:07.171, 1680381067171
53, 121.71, 193.31, 88.29, 0.00, 0.000, 0.000, 0.000, 16:31:07.171, 1680381067171
54, 466.52, 332.16, 281.06, 0.00, 0.000, 0.000, 0.000, 16:31:07.171, 1680381067171
55, -487.57, -281.20, -262.87, 0.00, 0.000, 0.000, 0.000, 16:31:07.200, 1680381067200
56, -234.50, -56.07, -96.67, 0.00, 0.000, 0.000, 0.000, 16:31:07.200, 1680381067200
57, 638.11, 481.92, 424.12, 0.00, 0.000, 0.000, 0.000, 16:31:07.202, 1680381067202
58, -292.05, -169.07, -152.60, 0.00, 0.000, 0.000, 0.000, 16:31:07.202, 1680381067202
59, -491.39, -237.38, -239.89, 0.00, 0.000, 0.000, 0.000, 16:31:07.202, 1680381067202
60, 470.72, 413.80, 335.13, 0.00, 0.000, 0.000, 0.000, 16:31:07.202, 1680381067202
61, 84.49, 73.76, 67.16, 0.00, 0.000, 0.000, 0.000, 16:31:07.230, 1680381067230
62, -555.87, -295.06, -286.97, 0.00, 0.000, 0.000, 0.000, 16:31:07.230, 1680381067230
63, 122.69, 202.13, 118.61, 0.00, 0.000, 0.000, 0.000, 16:31:07.231, 1680381067231
64, 468.65, 339.06, 295.78, 0.00, 0.000, 0.000, 0.000, 16:31:07.231, 1680381067231
65, -490.06, -281.47, -257.74, 0.00, 0.000, 0.000, 0.000, 16:31:07.232, 1680381067232
66, -232.95, -43.59, -92.79, 0.00, 0.000, 0.000, 0.000, 16:31:07.232, 1680381067232
67, 642.85, 488.41, 422.17, 0.00, 0.000, 0.000, 0.000, 16:31:07.261, 1680381067261
68, -261.74, -149.22, -125.24, 0.00, 0.000, 0.000, 0.000, 16:31:07.261, 1680381067261
69, -463.02, -221.46, -229.88, 0.00, 0.000, 0.000, 0.000, 16:31:07.262, 1680381067262
70, 486.69, 417.70, 347.24, 0.00, 0.000, 0.000, 0.000, 16:31:07.262, 1680381067262
71, 107.39, 79.38, 74.57, 0.00, 0.000, 0.000, 0.000, 16:31:07.263, 1680381067263
72, -539.97, -293.63, -285.59, 0.00, 0.000, 0.000, 0.000, 16:31:07.263, 1680381067263
73, 129.23, 196.81, 109.76, 0.00, 0.000, 0.000, 0.000, 16:31:07.290, 1680381067290
74, 477.15, 340.50, 295.44, 0.00, 0.000, 0.000, 0.000, 16:31:07.290, 1680381067290
75, -491.56, -281.66, -262.11, 0.00, 0.000, 0.000, 0.000, 16:31:07.291, 1680381067291
76, -236.59, -51.33, -98.34, 0.00, 0.000, 0.000, 0.000, 16:31:07.291, 1680381067291
77, 632.85, 472.72, 409.21, 0.00, 0.000, 0.000, 0.000, 16:31:07.292, 1680381067292
78, -262.97, -164.64, -136.47, 0.00, 0.000, 0.000, 0.000, 16:31:07.292, 1680381067292
79, -472.78, -229.81, -228.79, 0.00, 0.000, 0.000, 0.000, 16:31:07.320, 1680381067320
80, 476.06, 410.31, 342.75, 0.00, 0.000, 0.000, 0.000, 16:31:07.320, 1680381067320
81, 98.03, 72.22, 78.16, 0.00, 0.000, 0.000, 0.000, 16:31:07.321, 1680381067321
82, -557.65, -305.89, -279.53, 0.00, 0.000, 0.000, 0.000, 16:31:07.321, 1680381067321
83, 112.20, 180.56, 116.91, 0.00, 0.000, 0.000, 0.000, 16:31:07.321, 1680381067321
84, 471.34, 331.91, 302.89, 0.00, 0.000, 0.000, 0.000, 16:31:07.321, 1680381067321
85, -491.89, -286.70, -259.64, 0.00, 0.000, 0.000, 0.000, 16:31:07.350, 1680381067350
86, -244.19, -59.78, -104.03, 0.00, 0.000, 0.000, 0.000, 16:31:07.350, 1680381067350
87, 637.50, 481.57, 421.19, 0.00, 0.000, 0.000, 0.000, 16:31:07.351, 1680381067351
88, -261.48, -163.13, -131.02, 0.00, 0.000, 0.000, 0.000, 16:31:07.351, 1680381067351
89, -463.12, -227.57, -236.71, 0.00, 0.000, 0.000, 0.000, 16:31:07.352, 1680381067352
90, 484.16, 405.16, 329.19, 0.00, 0.000, 0.000, 0.000, 16:31:07.352, 1680381067352
91, 120.72, 82.38, 79.70, 0.00, 0.000, 0.000, 0.000, 16:31:07.380, 1680381067380
92, -529.86, -294.70, -283.67, 0.00, 0.000, 0.000, 0.000, 16:31:07.380, 1680381067380
93, 130.39, 183.75, 113.01, 0.00, 0.000, 0.000, 0.000, 16:31:07.381, 1680381067381
94, 488.80, 339.34, 310.13, 0.00, 0.000, 0.000, 0.000, 16:31:07.381, 1680381067381
95, -470.15, -278.55, -230.39, 0.00, 0.000, 0.000, 0.000, 16:31:07.382, 1680381067382
96, -239.83, -58.73, -68.08, 0.00, 0.000, 0.000, 0.000, 16:31:07.382, 1680381067382
97, 642.16, 485.18, 451.25, 0.00, 0.000, 0.000, 0.000, 16:31:07.411, 1680381067411
98, -261.89, -156.25, -123.27, 0.00, 0.000, 0.000, 0.000, 16:31:07.411, 1680381067411
99, -475.28, -227.44, -239.04, 0.00, 0.000, 0.000, 0.000, 16:31:07.412, 1680381067412
100, 470.14, 411.24, 318.43, 0.00, 0.000, 0.000, 0.000, 16:31:07.412, 1680381067412
101, 113.87, 87.56, 72.34, 0.00, 0.000, 0.000, 0.000, 16:31:07.414, 1680381067414
102, -551.89, -295.63, -287.24, 0.00, 0.000, 0.000, 0.000, 16:31:07.414, 1680381067414
103, 113.58, 184.53, 107.31, 0.00, 0.000, 0.000, 0.000, 16:31:07.441, 1680381067441
104, 482.77, 344.98, 301.95, 0.00, 0.000, 0.000, 0.000, 16:31:07.441, 1680381067441
105, -480.61, -277.32, -259.59, 0.00, 0.000, 0.000, 0.000, 16:31:07.442, 1680381067442
106, -253.67, -67.18, -113.94, 0.00, 0.000, 0.000, 0.000, 16:31:07.442, 1680381067442
107, 637.27, 482.10, 423.70, 0.00, 0.000, 0.000, 0.000, 16:31:07.442, 1680381067442
108, -264.14, -166.99, -128.13, 0.00, 0.000, 0.000, 0.000, 16:31:07.442, 1680381067442
109, -486.08, -244.96, -232.85, 0.00, 0.000, 0.000, 0.000, 16:31:07.470, 1680381067470
110, 467.82, 401.35, 327.50, 0.00, 0.000, 0.000, 0.000, 16:31:07.470, 1680381067470
111, 112.66, 82.63, 77.31, 0.00, 0.000, 0.000, 0.000, 16:31:07.471, 1680381067471
112, -549.54, -306.25, -294.39, 0.00, 0.000, 0.000, 0.000, 16:31:07.471, 1680381067471
113, 100.34, 174.59, 90.17, 0.00, 0.000, 0.000, 0.000, 16:31:07.478, 1680381067478
114, 475.85, 338.34, 288.95, 0.00, 0.000, 0.000, 0.000, 16:31:07.478, 1680381067478
115, -497.25, -288.28, -272.62, 0.00, 0.000, 0.000, 0.000, 16:31:07.500, 1680381067500
116, -273.55, -75.93, -127.03, 0.00, 0.000, 0.000, 0.000, 16:31:07.500, 1680381067500
117, 624.85, 478.31, 412.25, 0.00, 0.000, 0.000, 0.000, 16:31:07.501, 1680381067501
118, -259.39, -152.24, -135.42, 0.00, 0.000, 0.000, 0.000, 16:31:07.501, 1680381067501
119, -485.09, -236.33, -242.41, 0.00, 0.000, 0.000, 0.000, 16:31:07.502, 1680381067502
120, 464.67, 404.84, 331.21, 0.00, 0.000, 0.000, 0.000, 16:31:07.502, 1680381067502
121, 124.63, 89.23, 88.84, 0.00, 0.000, 0.000, 0.000, 16:31:07.530, 1680381067530
122, -548.48, -299.11, -275.98, 0.00, 0.000, 0.000, 0.000, 16:31:07.530, 1680381067530
123, 102.78, 177.81, 107.19, 0.00, 0.000, 0.000, 0.000, 16:31:07.531, 1680381067531
124, 492.14, 350.58, 308.52, 0.00, 0.000, 0.000, 0.000, 16:31:07.531, 1680381067531
125, -476.67, -279.03, -253.31, 0.00, 0.000, 0.000, 0.000, 16:31:07.531, 1680381067531
126, -249.18, -65.42, -110.72, 0.00, 0.000, 0.000, 0.000, 16:31:07.531, 1680381067531
127, 641.90, 476.36, 406.36, 0.00, 0.000, 0.000, 0.000, 16:31:07.560, 1680381067560
128, -256.30, -152.65, -137.76, 0.00, 0.000, 0.000, 0.000, 16:31:07.560, 1680381067560
129, -489.82, -239.27, -243.44, 0.00, 0.000, 0.000, 0.000, 16:31:07.561, 1680381067561
130, 441.78, 393.04, 317.69, 0.00, 0.000, 0.000, 0.000, 16:31:07.561, 1680381067561
131, 107.95, 83.12, 83.71, 0.00, 0.000, 0.000, 0.000, 16:31:07.561, 1680381067561
132, -565.84, -312.14, -284.98, 0.00, 0.000, 0.000, 0.000, 16:31:07.561, 1680381067561
133, 87.34, 169.88, 108.36, 0.00, 0.000, 0.000, 0.000, 16:31:07.590, 1680381067590
134, 475.63, 344.64, 305.22, 0.00, 0.000, 0.000, 0.000, 16:31:07.590, 1680381067590
135, -491.03, -284.82, -256.12, 0.00, 0.000, 0.000, 0.000, 16:31:07.591, 1680381067591
136, -263.06, -73.40, -114.37, 0.00, 0.000, 0.000, 0.000, 16:31:07.591, 1680381067591
137, 626.84, 481.74, 410.12, 0.00, 0.000, 0.000, 0.000, 16:31:07.591, 1680381067591
138, -260.80, -155.57, -142.23, 0.00, 0.000, 0.000, 0.000, 16:31:07.591, 1680381067591
139, -488.77, -243.11, -253.03, 0.00, 0.000, 0.000, 0.000, 16:31:07.620, 1680381067620
140, 448.59, 389.97, 310.09, 0.00, 0.000, 0.000, 0.000, 16:31:07.620, 1680381067620
141, 122.76, 85.23, 80.47, 0.00, 0.000, 0.000, 0.000, 16:31:07.621, 1680381067621
142, -552.40, -303.60, -285.14, 0.00, 0.000, 0.000, 0.000, 16:31:07.621, 1680381067621
143, 86.06, 164.50, 96.20, 0.00, 0.000, 0.000, 0.000, 16:31:07.621, 1680381067621
144, 486.63, 344.97, 305.58, 0.00, 0.000, 0.000, 0.000, 16:31:07.621, 1680381067621
145, -483.33, -282.03, -259.43, 0.00, 0.000, 0.000, 0.000, 16:31:07.650, 1680381067650
146, -271.91, -83.86, -127.22, 0.00, 0.000, 0.000, 0.000, 16:31:07.650, 1680381067650
147, 628.93, 475.55, 418.01, 0.00, 0.000, 0.000, 0.000, 16:31:07.651, 1680381067651
148, -244.72, -149.71, -130.85, 0.00, 0.000, 0.000, 0.000, 16:31:07.651, 1680381067651
149, -488.56, -239.22, -252.40, 0.00, 0.000, 0.000, 0.000, 16:31:07.652, 1680381067652
150, 455.00, 397.90, 317.36, 0.00, 0.000, 0.000, 0.000, 16:31:07.652, 1680381067652
151, 134.73, 100.10, 88.04, 0.00, 0.000, 0.000, 0.000, 16:31:07.680, 1680381067680
152, -557.42, -299.89, -286.26, 0.00, 0.000, 0.000, 0.000, 16:31:07.680, 1680381067680
153, 88.74, 165.36, 99.20, 0.00, 0.000, 0.000, 0.000, 16:31:07.681, 1680381067681
154, 491.81, 355.24, 317.36, 0.00, 0.000, 0.000, 0.000, 16:31:07.681, 1680381067681
155, -484.74, -283.66, -256.02, 0.00, 0.000, 0.000, 0.000, 16:31:07.682, 1680381067682
156, -264.90, -73.59, -112.68, 0.00, 0.000, 0.000, 0.000, 16:31:07.682, 1680381067682
157, 633.93, 484.73, 417.95, 0.00, 0.000, 0.000, 0.000, 16:31:07.710, 1680381067710
158, -249.29, -149.24, -130.23, 0.00, 0.000, 0.000, 0.000, 16:31:07.710, 1680381067710
159, -489.25, -236.25, -241.94, 0.00, 0.000, 0.000, 0.000, 16:31:07.712, 1680381067712
160, 460.01, 397.13, 321.83, 0.00, 0.000, 0.000, 0.000, 16:31:07.712, 1680381067712
161, 139.92, 100.56, 99.39, 0.00, 0.000, 0.000, 0.000, 16:31:07.712, 1680381067712
162, -547.43, -298.29, -274.79, 0.00, 0.000, 0.000, 0.000, 16:31:07.712, 1680381067712
163, 86.91, 162.46, 99.72, 0.00, 0.000, 0.000, 0.000, 16:31:07.740, 1680381067740
164, 503.52, 360.56, 327.26, 0.00, 0.000, 0.000, 0.000, 16:31:07.740, 1680381067740
165, -468.69, -274.39, -237.50, 0.00, 0.000, 0.000, 0.000, 16:31:07.741, 1680381067741
166, -261.04, -77.59, -111.58, 0.00, 0.000, 0.000, 0.000, 16:31:07.741, 1680381067741
167, 637.79, 489.71, 420.75, 0.00, 0.000, 0.000, 0.000, 16:31:07.741, 1680381067741
168, -226.92, -134.65, -118.77, 0.00, 0.000, 0.000, 0.000, 16:31:07.741, 1680381067741
169, -481.98, -236.69, -239.67, 0.00, 0.000, 0.000, 0.000, 16:31:07.770, 1680381067770
170, 456.74, 390.85, 321.28, 0.00, 0.000, 0.000, 0.000, 16:31:07.770, 1680381067770
171, 146.36, 100.65, 105.03, 0.00, 0.000, 0.000, 0.000, 16:31:07.771, 1680381067771
172, -534.53, -294.09, -269.64, 0.00, 0.000, 0.000, 0.000, 16:31:07.771, 1680381067771
173, 94.75, 166.67, 100.23, 0.00, 0.000, 0.000, 0.000, 16:31:07.772, 1680381067772
174, 509.37, 363.28, 327.70, 0.00, 0.000, 0.000, 0.000, 16:31:07.772, 1680381067772
175, -462.37, -269.59, -235.26, 0.00, 0.000, 0.000, 0.000, 16:31:07.800, 1680381067800
176, -257.82, -78.11, -102.87, 0.00, 0.000, 0.000, 0.000, 16:31:07.800, 1680381067800
177, 648.32, 487.66, 431.96, 0.00, 0.000, 0.000, 0.000, 16:31:07.801, 1680381067801
178, -220.31, -136.08, -106.17, 0.00, 0.000, 0.000, 0.000, 16:31:07.801, 1680381067801
179, -469.41, -233.03, -230.94, 0.00, 0.000, 0.000, 0.000, 16:31:07.802, 1680381067802
180, 463.67, 412.82, 322.79, 0.00, 0.000, 0.000, 0.000, 16:31:07.802, 1680381067802
181, 150.63, 131.29, 90.78, 0.00, 0.000, 0.000, 0.000, 16:31:07.830, 1680381067830
182, -558.98, -283.50, -301.08, 0.00, 0.000, 0.000, 0.000, 16:31:07.830, 1680381067830
183, 48.90, 170.97, 60.57, 0.00, 0.000, 0.000, 0.000, 16:31:07.831, 1680381067831
184, 466.29, 347.49, 297.32, 0.00, 0.000, 0.000, 0.000, 16:31:07.831, 1680381067831
185, -513.89, -320.21, -274.67, 0.00, 0.000, 0.000, 0.000, 16:31:07.832, 1680381067832
186, -316.70, -128.90, -142.54, 0.00, 0.000, 0.000, 0.000, 16:31:07.832, 1680381067832
187, 615.80, 458.91, 412.58, 0.00, 0.000, 0.000, 0.000, 16:31:07.861, 1680381067861
188, -232.90, -155.91, -113.17, 0.00, 0.000, 0.000, 0.000, 16:31:07.861, 1680381067861
189, -478.55, -240.96, -233.36, 0.00, 0.000, 0.000, 0.000, 16:31:07.862, 1680381067862
190, 450.92, 393.71, 321.71, 0.00, 0.000, 0.000, 0.000, 16:31:07.862, 1680381067862
191, 164.28, 113.55, 119.51, 0.00, 0.000, 0.000, 0.000, 16:31:07.863, 1680381067863
192, -537.20, -294.65, -274.38, 0.00, 0.000, 0.000, 0.000, 16:31:07.863, 1680381067863
193, 80.11, 165.54, 101.11, 0.00, 0.000, 0.000, 0.000, 16:31:07.890, 1680381067890
194, 507.96, 360.50, 324.45, 0.00, 0.000, 0.000, 0.000, 16:31:07.890, 1680381067890
195, -471.65, -276.88, -243.19, 0.00, 0.000, 0.000, 0.000, 16:31:07.891, 1680381067891
196, -279.42, -87.23, -121.44, 0.00, 0.000, 0.000, 0.000, 16:31:07.891, 1680381067891
197, 634.06, 486.56, 423.47, 0.00, 0.000, 0.000, 0.000, 16:31:07.891, 1680381067891
198, -225.63, -131.75, -111.92, 0.00, 0.000, 0.000, 0.000, 16:31:07.891, 1680381067891
199, -489.62, -240.93, -244.01, 0.00, 0.000, 0.000, 0.000, 16:31:07.920, 1680381067920
200, 443.65, 387.32, 306.73, 0.00, 0.000, 0.000, 0.000, 16:31:07.920, 1680381067920
0, 155.67, 108.00, 96.58, 0.00, 0.000, 0.000, 0.000, 16:31:07.921, 1680381067921
1, -542.48, -301.79, -285.79, 0.00, 0.000, 0.000, 0.000, 16:31:07.922, 1680381067922
2, 74.92, 151.63, 89.76, 0.00, 0.000, 0.000, 0.000, 16:31:07.922, 1680381067922
3, 512.47, 362.84, 330.07, 0.00, 0.000, 0.000, 0.000, 16:31:07.928, 1680381067928
4, 506.52, -283.44, -226.85, 0.00, 0.000, 0.000, 0.000, 16:31:07.928, 1680381067928
5, 691.84, -92.33, -100.51, 0.00, 0.000, 0.000, 0.000, 16:31:07.950, 1680381067950
6, 1615.83, 490.16, 459.73, 0.00, 0.000, 0.000, 0.000, 16:31:07.950, 1680381067950
7, 754.52, -133.25, -78.00, 0.00, 0.000, 0.000, 0.000, 16:31:07.951, 1680381067951
8, 480.91, -246.32, -231.50, 0.00, 0.000, 0.000, 0.000, 16:31:07.951, 1680381067951
9, 1412.74, 386.41, 310.09, 0.00, 0.000, 0.000, 0.000, 16:31:07.980, 1680381067980
10, 1137.95, 115.50, 92.65, 0.00, 0.000, 0.000, 0.000, 16:31:07.980, 1680381067980
11, 429.74, -293.24, -311.28, 0.00, 0.000, 0.000, 0.000, 16:31:07.981, 1680381067981
12, 1038.03, 155.94, 51.95, 0.00, 0.000, 0.000, 0.000, 16:31:07.981, 1680381067981
13, 1487.15, 369.54, 302.20, 0.00, 0.000, 0.000, 0.000, 16:31:07.981, 1680381067981
14, 512.53, -270.19, -246.58, 0.00, 0.000, 0.000, 0.000, 16:31:07.981, 1680381067981
15, 691.28, -89.76, -123.62, 0.00, 0.000, 0.000, 0.000, 16:31:07.983, 1680381067983
16, 1609.97, 484.11, 437.63, 0.00, 0.000, 0.000, 0.000, 16:31:07.983, 1680381067983
17, 753.45, -135.57, -94.62, 0.00, 0.000, 0.000, 0.000, 16:31:08.010, 1680381068010
18, 478.22, -241.74, -231.03, 0.00, 0.000, 0.000, 0.000, 16:31:08.010, 1680381068010
19, 1405.32, 383.38, 315.95, 0.00, 0.000, 0.000, 0.000, 16:31:08.011, 1680381068011
20, 1124.49, 109.79, 110.31, 0.00, 0.000, 0.000, 0.000, 16:31:08.011, 1680381068011
21, 427.74, -297.44, -283.02, 0.00, 0.000, 0.000, 0.000, 16:31:08.040, 1680381068040
22, 1038.47, 156.69, 73.53, 0.00, 0.000, 0.000, 0.000, 16:31:08.040, 1680381068040
23, 1489.00, 372.07, 310.26, 0.00, 0.000, 0.000, 0.000, 16:31:08.041, 1680381068041
24, 513.50, -270.18, -258.32, 0.00, 0.000, 0.000, 0.000, 16:31:08.041, 1680381068041
25, 700.54, -82.38, -131.21, 0.00, 0.000, 0.000, 0.000, 16:31:08.042, 1680381068042
26, 1614.87, 484.42, 422.90, 0.00, 0.000, 0.000, 0.000, 16:31:08.042, 1680381068042
27, 770.51, -127.55, -101.03, 0.00, 0.000, 0.000, 0.000, 16:31:08.042, 1680381068042
28, 499.40, -239.36, -239.64, 0.00, 0.000, 0.000, 0.000, 16:31:08.042, 1680381068042
29, 1424.73, 391.79, 314.06, 0.00, 0.000, 0.000, 0.000, 16:31:08.070, 1680381068070
30, 1161.44, 125.28, 122.56, 0.00, 0.000, 0.000, 0.000, 16:31:08.070, 1680381068070
31, 449.97, -294.93, -282.78, 0.00, 0.000, 0.000, 0.000, 16:31:08.071, 1680381068071
32, 1049.27, 147.78, 73.44, 0.00, 0.000, 0.000, 0.000, 16:31:08.071, 1680381068071
33, 1506.07, 372.84, 322.33, 0.00, 0.000, 0.000, 0.000, 16:31:08.100, 1680381068100
34, 527.69, -275.78, -256.22, 0.00, 0.000, 0.000, 0.000, 16:31:08.100, 1680381068100
35, 692.05, -98.53, -140.77, 0.00, 0.000, 0.000, 0.000, 16:31:08.101, 1680381068101
36, 1614.86, 488.67, 416.70, 0.00, 0.000, 0.000, 0.000, 16:31:08.101, 1680381068101
37, 768.89, -130.30, -107.58, 0.00, 0.000, 0.000, 0.000, 16:31:08.102, 1680381068102
38, 482.54, -250.46, -244.12, 0.00, 0.000, 0.000, 0.000, 16:31:08.102, 1680381068102
39, 1404.42, 373.89, 312.63, 0.00, 0.000, 0.000, 0.000, 16:31:08.103, 1680381068103
40, 1150.60, 123.99, 121.24, 0.00, 0.000, 0.000, 0.000, 16:31:08.103, 1680381068103
41, 427.74, -307.37, -276.29, 0.00, 0.000, 0.000, 0.000, 16:31:08.130, 1680381068130
42, 1034.23, 144.05, 82.59, 0.00, 0.000, 0.000, 0.000, 16:31:08.130, 1680381068130
43, 1494.93, 367.61, 336.57, 0.00, 0.000, 0.000, 0.000, 16:31:08.131, 1680381068131
44, 1491.84, -277.33, -247.97, 0.00, 0.000, 0.000, 0.000, 16:31:08.131, 1680381068131
45, 1666.98, -96.35, -133.89, 0.00, 0.000, 0.000, 0.000, 16:31:08.160, 1680381068160
46, 2596.94, 483.59, 413.32, 0.00, 0.000, 0.000, 0.000, 16:31:08.160, 1680381068160
47, 1755.39, -130.92, -110.36, 0.00, 0.000, 0.000, 0.000, 16:31:08.161, 1680381068161
48, 1468.36, -251.36, -254.68, 0.00, 0.000, 0.000, 0.000, 16:31:08.161, 1680381068161
49, 2392.83, 378.14, 295.47, 0.00, 0.000, 0.000, 0.000, 16:31:08.162, 1680381068162
50, 2142.11, 125.91, 109.87, 0.00, 0.000, 0.000, 0.000, 16:31:08.162, 1680381068162
51, 1426.19, -301.00, -288.38, 0.00, 0.000, 0.000, 0.000, 16:31:08.163, 1680381068163
52, 2017.28, 143.33, 69.86, 0.00, 0.000, 0.000, 0.000, 16:31:08.163, 1680381068163
53, 2490.34, 378.22, 324.91, 0.00, 0.000, 0.000, 0.000, 16:31:08.190, 1680381068190
54, 1511.14, -272.43, -244.38, 0.00, 0.000, 0.000, 0.000, 16:31:08.190, 1680381068190
55, 1667.93, -102.62, -128.90, 0.00, 0.000, 0.000, 0.000, 16:31:08.191, 1680381068191
56, 2597.40, 481.34, 431.95, 0.00, 0.000, 0.000, 0.000, 16:31:08.191, 1680381068191
57, 1750.69, -128.59, -75.35, 0.00, 0.000, 0.000, 0.000, 16:31:08.220, 1680381068220
58, 1449.61, -256.86, -236.03, 0.00, 0.000, 0.000, 0.000, 16:31:08.220, 1680381068220
59, 2357.03, 368.91, 296.15, 0.00, 0.000, 0.000, 0.000, 16:31:08.221, 1680381068221
60, 2106.81, 117.22, 94.43, 0.00, 0.000, 0.000, 0.000, 16:31:08.221, 1680381068221
61, 1391.63, -310.05, -308.86, 0.00, 0.000, 0.000, 0.000, 16:31:08.222, 1680381068222
62, 1989.54, 135.32, 54.11, 0.00, 0.000, 0.000, 0.000, 16:31:08.222, 1680381068222
63, 2471.90, 372.59, 323.01, 0.00, 0.000, 0.000, 0.000, 16:31:08.223, 1680381068223
64, 2466.12, -272.79, -251.93, 0.00, 0.000, 0.000, 0.000, 16:31:08.223, 1680381068223
65, 2642.20, -96.98, -139.52, 0.00, 0.000, 0.000, 0.000, 16:31:08.250, 1680381068250
66, 3571.53, 483.57, 409.67, 0.00, 0.000, 0.000, 0.000, 16:31:08.250, 1680381068250
67, 2736.23, -121.34, -105.60, 0.00, 0.000, 0.000, 0.000, 16:31:08.251, 1680381068251
68, 2443.15, -251.84, -247.09, 0.00, 0.000, 0.000, 0.000, 16:31:08.251, 1680381068251
69, 3353.98, 368.09, 299.69, 0.00, 0.000, 0.000, 0.000, 16:31:08.280, 1680381068280
70, 3124.40, 125.80, 127.12, 0.00, 0.000, 0.000, 0.000, 16:31:08.280, 1680381068280
71, 2394.72, -309.66, -283.52, 0.00, 0.000, 0.000, 0.000, 16:31:08.281, 1680381068281
72, 2984.01, 133.55, 66.09, 0.00, 0.000, 0.000, 0.000, 16:31:08.281, 1680381068281
73, 3474.31, 381.52, 332.20, 0.00, 0.000, 0.000, 0.000, 16:31:08.282, 1680381068282
74, 3460.70, -277.66, -257.77, 0.00, 0.000, 0.000, 0.000, 16:31:08.282, 1680381068282
75, 3609.59, -110.58, -155.81, 0.00, 0.000, 0.000, 0.000, 16:31:08.283, 1680381068283
76, 4541.27, 479.30, 406.85, 0.00, 0.000, 0.000, 0.000, 16:31:08.283, 1680381068283
77, 3712.08, -115.63, -103.37, 0.00, 0.000, 0.000, 0.000, 16:31:08.310, 1680381068310
78, 3416.34, -245.86, -257.46, 0.00, 0.000, 0.000, 0.000, 16:31:08.310, 1680381068310
79, 4326.79, 372.56, 295.93, 0.00, 0.000, 0.000, 0.000, 16:31:08.311, 1680381068311
80, 4107.97, 131.80, 132.54, 0.00, 0.000, 0.000, 0.000, 16:31:08.311, 1680381068311
81, 3375.20, -300.11, -271.64, 0.00, 0.000, 0.000, 0.000, 16:31:08.340, 1680381068340
82, 3962.06, 135.16, 69.13, 0.00, 0.000, 0.000, 0.000, 16:31:08.340, 1680381068340
83, 4453.84, 378.44, 347.43, 0.00, 0.000, 0.000, 0.000, 16:31:08.341, 1680381068341
84, 4449.50, -272.98, -245.19, 0.00, 0.000, 0.000, 0.000, 16:31:08.341, 1680381068341
85, 4607.85, -104.17, -136.96, 0.00, 0.000, 0.000, 0.000, 16:31:08.342, 1680381068342
86, 5538.80, 481.22, 423.95, 0.00, 0.000, 0.000, 0.000, 16:31:08.342, 1680381068342
87, 4711.93, -117.62, -100.48, 0.00, 0.000, 0.000, 0.000, 16:31:08.343, 1680381068343
88, 4403.08, -250.35, -248.38, 0.00, 0.000, 0.000, 0.000, 16:31:08.343, 1680381068343
89, 5307.23, 368.71, 285.77, 0.00, 0.000, 0.000, 0.000, 16:31:08.370, 1680381068370
90, 5088.92, 134.36, 132.58, 0.00, 0.000, 0.000, 0.000, 16:31:08.370, 1680381068370
91, 4352.50, -307.73, -282.33, 0.00, 0.000, 0.000, 0.000, 16:31:08.377, 1680381068377
92, 4928.33, 127.46, 64.02, 0.00, 0.000, 0.000, 0.000, 16:31:08.377, 1680381068377
93, 5431.73, 382.92, 345.07, 0.00, 0.000, 0.000, 0.000, 16:31:08.400, 1680381068400
94, 5424.72, -268.77, -234.12, 0.00, 0.000, 0.000, 0.000, 16:31:08.400, 1680381068400
95, 5568.92, -112.70, -139.51, 0.00, 0.000, 0.000, 0.000, 16:31:08.401, 1680381068401
96, 6511.58, 479.77, 424.99, 0.00, 0.000, 0.000, 0.000, 16:31:08.401, 1680381068401
97, 5685.82, -116.75, -101.85, 0.00, 0.000, 0.000, 0.000, 16:31:08.401, 1680381068401
98, 5380.45, -253.66, -253.85, 0.00, 0.000, 0.000, 0.000, 16:31:08.401, 1680381068401
99, 6285.47, 366.40, 285.82, 0.00, 0.000, 0.000, 0.000, 16:31:08.403, 1680381068403
100, 6083.02, 140.71, 128.68, 0.00, 0.000, 0.000, 0.000, 16:31:08.403, 1680381068403
101, 5345.24, -304.49, -275.94, 0.00, 0.000, 0.000, 0.000, 16:31:08.430, 1680381068430
102, 5916.33, 125.60, 61.87, 0.00, 0.000, 0.000, 0.000, 16:31:08.430, 1680381068430
103, 6422.44, 383.28, 341.56, 0.00, 0.000, 0.000, 0.000, 16:31:08.431, 1680381068431
104, 6413.51, -266.19, -239.14, 0.00, 0.000, 0.000, 0.000, 16:31:08.431, 1680381068431
105, 6551.46, -117.14, -147.71, 0.00, 0.000, 0.000, 0.000, 16:31:08.460, 1680381068460
106, 7485.22, 476.43, 407.72, 0.00, 0.000, 0.000, 0.000, 16:31:08.460, 1680381068460
107, 6662.36, -118.73, -101.48, 0.00, 0.000, 0.000, 0.000, 16:31:08.461, 1680381068461
108, 6331.67, -278.18, -272.28, 0.00, 0.000, 0.000, 0.000, 16:31:08.461, 1680381068461
109, 7248.72, 357.58, 281.08, 0.00, 0.000, 0.000, 0.000, 16:31:08.461, 1680381068461
110, 7044.37, 134.24, 123.29, 0.00, 0.000, 0.000, 0.000, 16:31:08.461, 1680381068461
111, 6301.12, -317.46, -293.13, 0.00, 0.000, 0.000, 0.000, 16:31:08.462, 1680381068462
112, 6878.05, 117.79, 53.34, 0.00, 0.000, 0.000, 0.000, 16:31:08.462, 1680381068462
113, 7391.38, 381.03, 332.52, 0.00, 0.000, 0.000, 0.000, 16:31:08.491, 1680381068491
114, 7378.33, -270.25, -243.28, 0.00, 0.000, 0.000, 0.000, 16:31:08.491, 1680381068491
115, 7515.22, -112.50, -153.93, 0.00, 0.000, 0.000, 0.000, 16:31:08.491, 1680381068491
116, 8469.12, 486.53, 416.16, 0.00, 0.000, 0.000, 0.000, 16:31:08.491, 1680381068491
117, 7655.18, -111.61, -96.89, 0.00, 0.000, 0.000, 0.000, 16:31:08.520, 1680381068520
118, 7334.84, -256.52, -260.46, 0.00, 0.000, 0.000, 0.000, 16:31:08.520, 1680381068520
119, 8237.62, 360.10, 280.46, 0.00, 0.000, 0.000, 0.000, 16:31:08.521, 1680381068521
120, 8037.02, 142.10, 125.87, 0.00, 0.000, 0.000, 0.000, 16:31:08.521, 1680381068521
121, 7281.92, -312.50, -286.35, 0.00, 0.000, 0.000, 0.000, 16:31:08.521, 1680381068521
122, 7860.29, 123.07, 61.48, 0.00, 0.000, 0.000, 0.000, 16:31:08.521, 1680381068521
123, 8378.18, 392.06, 345.03, 0.00, 0.000, 0.000, 0.000, 16:31:08.523, 1680381068523
124, 7399.03, -260.92, -234.95, 0.00, 0.000, 0.000, 0.000, 16:31:08.523, 1680381068523
125, 7531.20, -113.95, -145.59, 0.00, 0.000, 0.000, 0.000, 16:31:08.550, 1680381068550
126, 8473.20, 491.34, 421.22, 0.00, 0.000, 0.000, 0.000, 16:31:08.550, 1680381068550
127, 7667.33, -107.73, -89.28, 0.00, 0.000, 0.000, 0.000, 16:31:08.551, 1680381068551
128, 7343.20, -252.88, -248.62, 0.00, 0.000, 0.000, 0.000, 16:31:08.551, 1680381068551
129, 8241.15, 359.80, 292.52, 0.00, 0.000, 0.000, 0.000, 16:31:08.580, 1680381068580
130, 8061.71, 150.06, 143.99, 0.00, 0.000, 0.000, 0.000, 16:31:08.580, 1680381068580
131, 7302.30, -300.17, -277.78, 0.00, 0.000, 0.000, 0.000, 16:31:08.581, 1680381068581
132, 7861.26, 117.62, 61.22, 0.00, 0.000, 0.000, 0.000, 16:31:08.581, 1680381068581
133, 8388.42, 390.31, 347.29, 0.00, 0.000, 0.000, 0.000, 16:31:08.581, 1680381068581
134, 8383.23, -259.72, -232.69, 0.00, 0.000, 0.000, 0.000, 16:31:08.581, 1680381068581
135, 8507.61, -112.33, -143.51, 0.00, 0.000, 0.000, 0.000, 16:31:08.583, 1680381068583
136, 9450.67, 487.77, 424.10, 0.00, 0.000, 0.000, 0.000, 16:31:08.583, 1680381068583
137, 8649.17, -104.66, -85.03, 0.00, 0.000, 0.000, 0.000, 16:31:08.610, 1680381068610
138, 8323.77, -249.60, -250.76, 0.00, 0.000, 0.000, 0.000, 16:31:08.610, 1680381068610
139, 9230.13, 367.65, 295.41, 0.00, 0.000, 0.000, 0.000, 16:31:08.611, 1680381068611
140, 9052.17, 151.65, 150.27, 0.00, 0.000, 0.000, 0.000, 16:31:08.611, 1680381068611
141, 8282.98, -294.94, -278.28, 0.00, 0.000, 0.000, 0.000, 16:31:08.641, 1680381068641
142, 8840.02, 133.95, 45.84, 0.00, 0.000, 0.000, 0.000, 16:31:08.641, 1680381068641
143, 9363.94, 411.93, 333.73, 0.00, 0.000, 0.000, 0.000, 16:31:08.641, 1680381068641
144, 9336.89, -246.98, -265.70, 0.00, 0.000, 0.000, 0.000, 16:31:08.641, 1680381068641
145, 9456.17, -110.47, -181.07, 0.00, 0.000, 0.000, 0.000, 16:31:08.642, 1680381068642
146, 10402.29, 458.87, 396.52, 0.00, 0.000, 0.000, 0.000, 16:31:08.642, 1680381068642
147, 9610.55, -134.80, -92.64, 0.00, 0.000, 0.000, 0.000, 16:31:08.643, 1680381068643
148, 9293.18, -281.23, -248.29, 0.00, 0.000, 0.000, 0.000, 16:31:08.643, 1680381068643
149, 10211.59, 351.58, 298.62, 0.00, 0.000, 0.000, 0.000, 16:31:08.670, 1680381068670
150, 10044.39, 157.61, 161.01, 0.00, 0.000, 0.000, 0.000, 16:31:08.670, 1680381068670
151, 9279.92, -305.56, -272.98, 0.00, 0.000, 0.000, 0.000, 16:31:08.671, 1680381068671
152, 9819.29, 111.78, 52.89, 0.00, 0.000, 0.000, 0.000, 16:31:08.671, 1680381068671
153, 10349.39, 391.19, 344.65, 0.00, 0.000, 0.000, 0.000, 16:31:08.700, 1680381068700
154, 10332.19, -270.69, -242.05, 0.00, 0.000, 0.000, 0.000, 16:31:08.700, 1680381068700
155, 10442.68, -127.47, -156.02, 0.00, 0.000, 0.000, 0.000, 16:31:08.701, 1680381068701
156, 11391.99, 480.30, 403.64, 0.00, 0.000, 0.000, 0.000, 16:31:08.701, 1680381068701
157, 10605.84, -103.55, -84.45, 0.00, 0.000, 0.000, 0.000, 16:31:08.701, 1680381068701
158, 10270.81, -262.20, -257.42, 0.00, 0.000, 0.000, 0.000, 16:31:08.701, 1680381068701
159, 11161.51, 351.57, 272.20, 0.00, 0.000, 0.000, 0.000, 16:31:08.702, 1680381068702
160, 11003.10, 150.77, 144.23, 0.00, 0.000, 0.000, 0.000, 16:31:08.702, 1680381068702
161, 10236.47, -309.90, -282.57, 0.00, 0.000, 0.000, 0.000, 16:31:08.730, 1680381068730
162, 10787.18, 112.66, 39.56, 0.00, 0.000, 0.000, 0.000, 16:31:08.730, 1680381068730
163, 11333.81, 393.95, 336.17, 0.00, 0.000, 0.000, 0.000, 16:31:08.731, 1680381068731
164, 11314.87, -272.08, -256.96, 0.00, 0.000, 0.000, 0.000, 16:31:08.731, 1680381068731
165, 11432.87, -121.45, -155.51, 0.00, 0.000, 0.000, 0.000, 16:31:08.760, 1680381068760
166, 12388.23, 478.15, 431.82, 0.00, 0.000, 0.000, 0.000, 16:31:08.760, 1680381068760
167, 11590.31, -100.81, -48.04, 0.00, 0.000, 0.000, 0.000, 16:31:08.762, 1680381068762
168, 11246.61, -258.09, -208.83, 0.00, 0.000, 0.000, 0.000, 16:31:08.762, 1680381068762
169, 12128.79, 353.18, 319.27, 0.00, 0.000, 0.000, 0.000, 16:31:08.762, 1680381068762
170, 11978.42, 157.12, 173.81, 0.00, 0.000, 0.000, 0.000, 16:31:08.762, 1680381068762
171, 11208.96, -307.34, -285.81, 0.00, 0.000, 0.000, 0.000, 16:31:08.763, 1680381068763
172, 11767.86, 117.91, 22.79, 0.00, 0.000, 0.000, 0.000, 16:31:08.763, 1680381068763
173, 12314.98, 407.34, 321.02, 0.00, 0.000, 0.000, 0.000, 16:31:08.790, 1680381068790
174, 12295.59, -262.98, -266.91, 0.00, 0.000, 0.000, 0.000, 16:31:08.790, 1680381068790
175, 12413.52, -121.91, -175.36, 0.00, 0.000, 0.000, 0.000, 16:31:08.791, 1680381068791
176, 13370.22, 490.53, 411.56, 0.00, 0.000, 0.000, 0.000, 16:31:08.791, 1680381068791
177, 12589.95, -93.99, -78.41, 0.00, 0.000, 0.000, 0.000, 16:31:08.820, 1680381068820
178, 12242.25, -258.00, -256.56, 0.00, 0.000, 0.000, 0.000, 16:31:08.820, 1680381068820
179, 13120.95, 350.75, 287.66, 0.00, 0.000, 0.000, 0.000, 16:31:08.821, 1680381068821
180, 12970.12, 160.30, 156.33, 0.00, 0.000, 0.000, 0.000, 16:31:08.821, 1680381068821
181, 12188.17, -313.13, -280.07, 0.00, 0.000, 0.000, 0.000, 16:31:08.821, 1680381068821
182, 12731.16, 101.21, 46.15, 0.00, 0.000, 0.000, 0.000, 16:31:08.821, 1680381068821
183, 13289.27, 400.94, 356.44, 0.00, 0.000, 0.000, 0.000, 16:31:08.823, 1680381068823
184, 13272.43, -263.37, -245.74, 0.00, 0.000, 0.000, 0.000, 16:31:08.823, 1680381068823
185, 13374.91, -127.47, -172.25, 0.00, 0.000, 0.000, 0.000, 16:31:08.850, 1680381068850
186, 14343.45, 488.16, 400.06, 0.00, 0.000, 0.000, 0.000, 16:31:08.850, 1680381068850
187, 13553.17, -94.34, -91.24, 0.00, 0.000, 0.000, 0.000, 16:31:08.851, 1680381068851
188, 13199.60, -258.61, -268.32, 0.00, 0.000, 0.000, 0.000, 16:31:08.851, 1680381068851
189, 14087.10, 351.13, 272.53, 0.00, 0.000, 0.000, 0.000, 16:31:08.880, 1680381068880
190, 13956.90, 171.19, 153.92, 0.00, 0.000, 0.000, 0.000, 16:31:08.880, 1680381068880
191, 13180.32, -302.42, -272.22, 0.00, 0.000, 0.000, 0.000, 16:31:08.881, 1680381068881
192, 13720.23, 106.87, 46.94, 0.00, 0.000, 0.000, 0.000, 16:31:08.881, 1680381068881
193, 14296.39, 414.51, 366.44, 0.00, 0.000, 0.000, 0.000, 16:31:08.882, 1680381068882
194, 14273.05, -256.40, -237.56, 0.00, 0.000, 0.000, 0.000, 16:31:08.882, 1680381068882
195, 14369.71, -127.29, -171.28, 0.00, 0.000, 0.000, 0.000, 16:31:08.883, 1680381068883
196, 15335.03, 489.03, 406.15, 0.00, 0.000, 0.000, 0.000, 16:31:08.883, 1680381068883
197, 14563.36, -88.63, -83.52, 0.00, 0.000, 0.000, 0.000, 16:31:08.911, 1680381068911
198, 14202.13, -258.05, -264.28, 0.00, 0.000, 0.000, 0.000, 16:31:08.911, 1680381068911
199, 15082.22, 347.81, 272.73, 0.00, 0.000, 0.000, 0.000, 16:31:08.912, 1680381068912
200, 14945.87, 167.98, 155.48, 0.00, 0.000, 0.000, 0.000, 16:31:08.912, 1680381068912
0, -546.97, -304.23, -272.27, 0.00, 0.000, 0.000, 0.000, 16:31:08.913, 1680381068913
1, -9.14, 102.98, 53.76, 0.00, 0.000, 0.000, 0.000, 16:31:08.940, 1680381068940
2, 557.91, 402.76, 371.10, 0.00, 0.000, 0.000, 0.000, 16:31:08.940, 1680381068940
3, 538.96, -264.72, -227.01, 0.00, 0.000, 0.000, 0.000, 16:31:08.941, 1680381068941
4, 638.13, -128.40, -156.72, 0.00, 0.000, 0.000, 0.000, 16:31:08.941, 1680381068941
5, 1600.16, 484.87, 424.24, 0.00, 0.000, 0.000, 0.000, 16:31:08.941, 1680381068941
6, 825.97, -90.06, -69.98, 0.00, 0.000, 0.000, 0.000, 16:31:08.941, 1680381068941
7, 470.46, -261.47, -255.75, 0.00, 0.000, 0.000, 0.000, 16:31:08.970, 1680381068970
8, 1351.38, 345.98, 273.66, 0.00, 0.000, 0.000, 0.000, 16:31:08.970, 1680381068970
9, 1227.37, 170.68, 161.04, 0.00, 0.000, 0.000, 0.000, 16:31:08.971, 1680381068971
10, 444.14, -303.79, -284.15, 0.00, 0.000, 0.000, 0.000, 16:31:08.971, 1680381068971
11, 975.54, 96.26, 33.05, 0.00, 0.000, 0.000, 0.000, 16:31:08.971, 1680381068971
12, 1552.91, 410.46, 361.90, 0.00, 0.000, 0.000, 0.000, 16:31:08.971, 1680381068971
13, 1528.63, -259.41, -234.02, 0.00, 0.000, 0.000, 0.000, 16:31:09.000, 1680381069000
14, 1619.36, -131.83, -169.51, 0.00, 0.000, 0.000, 0.000, 16:31:09.000, 1680381069000
15, 2588.90, 488.44, 404.33, 0.00, 0.000, 0.000, 0.000, 16:31:09.001, 1680381069001
16, 1821.49, -87.82, -72.95, 0.00, 0.000, 0.000, 0.000, 16:31:09.001, 1680381069001
17, 1458.24, -257.89, -253.02, 0.00, 0.000, 0.000, 0.000, 16:31:09.002, 1680381069002
18, 2336.10, 353.46, 292.72, 0.00, 0.000, 0.000, 0.000, 16:31:09.002, 1680381069002
19, 2210.51, 179.57, 186.31, 0.00, 0.000, 0.000, 0.000, 16:31:09.030, 1680381069030
20, 1417.05, -299.20, -255.88, 0.00, 0.000, 0.000, 0.000, 16:31:09.030, 1680381069030
21, 1943.99, 100.64, 45.52, 0.00, 0.000, 0.000, 0.000, 16:31:09.031, 1680381069031
22, 2519.22, 408.71, 361.06, 0.00, 0.000, 0.000, 0.000, 16:31:09.031, 1680381069031
23, 2503.76, -255.79, -242.35, 0.00, 0.000, 0.000, 0.000, 16:31:09.032, 1680381069032
24, 2589.20, -136.69, -170.83, 0.00, 0.000, 0.000, 0.000, 16:31:09.032, 1680381069032
25, 3557.19, 484.77, 414.67, 0.00, 0.000, 0.000, 0.000, 16:31:09.060, 1680381069060
26, 2799.38, -84.48, -63.57, 0.00, 0.000, 0.000, 0.000, 16:31:09.060, 1680381069060
27, 2426.39, -265.08, -265.04, 0.00, 0.000, 0.000, 0.000, 16:31:09.061, 1680381069061
28, 3305.74, 340.56, 253.38, 0.00, 0.000, 0.000, 0.000, 16:31:09.061, 1680381069061
29, 3192.71, 169.86, 144.67, 0.00, 0.000, 0.000, 0.000, 16:31:09.062, 1680381069062
30, 2402.19, -313.00, -291.43, 0.00, 0.000, 0.000, 0.000, 16:31:09.062, 1680381069062
31, 2921.60, 90.27, 30.49, 0.00, 0.000, 0.000, 0.000, 16:31:09.090, 1680381069090
32, 3499.95, 403.59, 363.54, 0.00, 0.000, 0.000, 0.000, 16:31:09.090, 1680381069090
33, 3479.60, -260.71, -230.63, 0.00, 0.000, 0.000, 0.000, 16:31:09.091, 1680381069091
34, 3560.33, -139.67, -175.76, 0.00, 0.000, 0.000, 0.000, 16:31:09.091, 1680381069091
35, 4521.22, 472.32, 397.80, 0.00, 0.000, 0.000, 0.000, 16:31:09.092, 1680381069092
36, 3762.38, -91.64, -88.16, 0.00, 0.000, 0.000, 0.000, 16:31:09.092, 1680381069092
37, 3387.13, -272.94, -281.99, 0.00, 0.000, 0.000, 0.000, 16:31:09.120, 1680381069120
38, 4263.90, 334.04, 249.61, 0.00, 0.000, 0.000, 0.000, 16:31:09.120, 1680381069120
39, 4160.88, 172.14, 157.55, 0.00, 0.000, 0.000, 0.000, 16:31:09.121, 1680381069121
40, 3358.29, -319.67, -295.47, 0.00, 0.000, 0.000, 0.000, 16:31:09.121, 1680381069121
41, 3860.29, 77.13, 10.45, 0.00, 0.000, 0.000, 0.000, 16:31:09.128, 1680381069128
42, 4468.89, 402.43, 352.30, 0.00, 0.000, 0.000, 0.000, 16:31:09.128, 1680381069128
43, 4464.00, -261.18, -235.23, 0.00, 0.000, 0.000, 0.000, 16:31:09.151, 1680381069151
44, 4540.90, -142.37, -175.16, 0.00, 0.000, 0.000, 0.000, 16:31:09.151, 1680381069151
45, 5507.02, 474.59, 400.20, 0.00, 0.000, 0.000, 0.000, 16:31:09.152, 1680381069152
46, 4760.84, -88.05, -73.26, 0.00, 0.000, 0.000, 0.000, 16:31:09.152, 1680381069152
47, 4388.82, -262.14, -266.39, 0.00, 0.000, 0.000, 0.000, 16:31:09.153, 1680381069153
48, 5255.29, 335.93, 258.26, 0.00, 0.000, 0.000, 0.000, 16:31:09.153, 1680381069153
49, 5162.53, 179.64, 169.86, 0.00, 0.000, 0.000, 0.000, 16:31:09.180, 1680381069180
50, 4357.19, -307.17, -284.48, 0.00, 0.000, 0.000, 0.000, 16:31:09.180, 1680381069180
51, 4874.64, 92.46, 29.45, 0.00, 0.000, 0.000, 0.000, 16:31:09.181, 1680381069181
52, 5479.31, 422.20, 374.71, 0.00, 0.000, 0.000, 0.000, 16:31:09.181, 1680381069181
53, 5452.16, -251.79, -229.95, 0.00, 0.000, 0.000, 0.000, 16:31:09.181, 1680381069181
54, 5525.70, -139.01, -169.97, 0.00, 0.000, 0.000, 0.000, 16:31:09.181, 1680381069181
55, 6499.35, 486.26, 415.18, 0.00, 0.000, 0.000, 0.000, 16:31:09.210, 1680381069210
56, 5736.25, -83.02, -68.42, 0.00, 0.000, 0.000, 0.000, 16:31:09.210, 1680381069210
57, 5350.47, -272.81, -271.98, 0.00, 0.000, 0.000, 0.000, 16:31:09.211, 1680381069211
58, 6224.99, 335.00, 252.37, 0.00, 0.000, 0.000, 0.000, 16:31:09.211, 1680381069211
59, 6125.77, 178.36, 166.61, 0.00, 0.000, 0.000, 0.000, 16:31:09.212, 1680381069212
60, 5330.00, -307.53, -287.55, 0.00, 0.000, 0.000, 0.000, 16:31:09.212, 1680381069212
61, 5845.06, 83.62, 24.00, 0.00, 0.000, 0.000, 0.000, 16:31:09.240, 1680381069240
62, 6451.74, 416.30, 361.02, 0.00, 0.000, 0.000, 0.000, 16:31:09.240, 1680381069240
63, 6439.22, -249.73, -234.38, 0.00, 0.000, 0.000, 0.000, 16:31:09.241, 1680381069241
64, 6500.84, -144.84, -181.30, 0.00, 0.000, 0.000, 0.000, 16:31:09.241, 1680381069241
65, 7472.75, 481.10, 403.74, 0.00, 0.000, 0.000, 0.000, 16:31:09.242, 1680381069242
66, 6727.00, -80.56, -69.83, 0.00, 0.000, 0.000, 0.000, 16:31:09.242, 1680381069242
67, 6346.97, -270.75, -272.64, 0.00, 0.000, 0.000, 0.000, 16:31:09.270, 1680381069270
68, 7204.52, 325.53, 252.58, 0.00, 0.000, 0.000, 0.000, 16:31:09.270, 1680381069270
69, 7119.86, 181.73, 171.74, 0.00, 0.000, 0.000, 0.000, 16:31:09.271, 1680381069271
70, 6318.55, -303.03, -278.81, 0.00, 0.000, 0.000, 0.000, 16:31:09.271, 1680381069271
71, 6827.24, 85.57, 30.93, 0.00, 0.000, 0.000, 0.000, 16:31:09.271, 1680381069271
72, 7432.31, 416.87, 368.93, 0.00, 0.000, 0.000, 0.000, 16:31:09.271, 1680381069271
73, 7413.62, -258.13, -229.35, 0.00, 0.000, 0.000, 0.000, 16:31:09.300, 1680381069300
74, 7480.14, -140.29, -172.08, 0.00, 0.000, 0.000, 0.000, 16:31:09.300, 1680381069300
75, 7480.26, 484.70, 412.55, 0.00, 0.000, 0.000, 0.000, 16:31:09.301, 1680381069301
76, 6741.71, -76.95, -56.46, 0.00, 0.000, 0.000, 0.000, 16:31:09.301, 1680381069301
77, 6347.44, -273.83, -264.17, 0.00, 0.000, 0.000, 0.000, 16:31:09.301, 1680381069301
78, 7209.21, 330.41, 259.01, 0.00, 0.000, 0.000, 0.000, 16:31:09.301, 1680381069301
79, 7131.37, 185.63, 172.97, 0.00, 0.000, 0.000, 0.000, 16:31:09.330, 1680381069330
80, 6321.02, -302.77, -282.37, 0.00, 0.000, 0.000, 0.000, 16:31:09.330, 1680381069330
81, 6821.73, 86.57, 32.91, 0.00, 0.000, 0.000, 0.000, 16:31:09.331, 1680381069331
82, 7442.98, 424.89, 375.13, 0.00, 0.000, 0.000, 0.000, 16:31:09.331, 1680381069331
83, 7422.54, -250.57, -227.09, 0.00, 0.000, 0.000, 0.000, 16:31:09.331, 1680381069331
84, 7487.71, -145.88, -169.64, 0.00, 0.000, 0.000, 0.000, 16:31:09.331, 1680381069331
85, 8460.16, 482.41, 413.76, 0.00, 0.000, 0.000, 0.000, 16:31:09.361, 1680381069361
86, 7720.66, -74.16, -63.73, 0.00, 0.000, 0.000, 0.000, 16:31:09.361, 1680381069361
87, 7319.72, -273.13, -266.21, 0.00, 0.000, 0.000, 0.000, 16:31:09.361, 1680381069361
88, 8181.58, 333.45, 254.57, 0.00, 0.000, 0.000, 0.000, 16:31:09.361, 1680381069361
89, 8110.99, 190.98, 171.31, 0.00, 0.000, 0.000, 0.000, 16:31:09.363, 1680381069363
90, 7298.85, -305.36, -285.72, 0.00, 0.000, 0.000, 0.000, 16:31:09.363, 1680381069363
91, 7805.08, 77.75, 22.53, 0.00, 0.000, 0.000, 0.000, 16:31:09.390, 1680381069390
92, 8429.53, 421.26, 376.82, 0.00, 0.000, 0.000, 0.000, 16:31:09.390, 1680381069390
93, 8410.12, -248.16, -219.90, 0.00, 0.000, 0.000, 0.000, 16:31:09.391, 1680381069391
94, 8464.44, -143.92, -174.13, 0.00, 0.000, 0.000, 0.000, 16:31:09.391, 1680381069391
95, 9435.77, 480.67, 414.58, 0.00, 0.000, 0.000, 0.000, 16:31:09.392, 1680381069392
96, 8710.16, -67.22, -54.07, 0.00, 0.000, 0.000, 0.000, 16:31:09.392, 1680381069392
97, 8305.90, -273.01, -266.12, 0.00, 0.000, 0.000, 0.000, 16:31:09.420, 1680381069420
98, 9163.06, 318.75, 256.42, 0.00, 0.000, 0.000, 0.000, 16:31:09.420, 1680381069420
99, 9104.28, 192.35, 183.47, 0.00, 0.000, 0.000, 0.000, 16:31:09.421, 1680381069421
100, 8284.64, -300.87, -273.92, 0.00, 0.000, 0.000, 0.000, 16:31:09.421, 1680381069421
101, 8781.74, 81.83, 32.00, 0.00, 0.000, 0.000, 0.000, 16:31:09.422, 1680381069422
102, 9405.02, 418.83, 375.40, 0.00, 0.000, 0.000, 0.000, 16:31:09.422, 1680381069422
103, 9384.98, -249.01, -222.67, 0.00, 0.000, 0.000, 0.000, 16:31:09.450, 1680381069450
104, 9436.11, -145.93, -180.21, 0.00, 0.000, 0.000, 0.000, 16:31:09.450, 1680381069450
105, 10411.93, 478.22, 411.01, 0.00, 0.000, 0.000, 0.000, 16:31:09.451, 1680381069451
106, 9691.67, -64.21, -47.35, 0.00, 0.000, 0.000, 0.000, 16:31:09.451, 1680381069451
107, 9294.03, -270.16, -251.27, 0.00, 0.000, 0.000, 0.000, 16:31:09.452, 1680381069452
108, 10148.73, 326.83, 260.27, 0.00, 0.000, 0.000, 0.000, 16:31:09.452, 1680381069452
109, 10102.49, 207.87, 191.18, 0.00, 0.000, 0.000, 0.000, 16:31:09.480, 1680381069480
110, 9280.96, -282.78, -276.68, 0.00, 0.000, 0.000, 0.000, 16:31:09.480, 1680381069480
111, 9750.46, 94.72, 3.66, 0.00, 0.000, 0.000, 0.000, 16:31:09.481, 1680381069481
112, 10372.66, 442.69, 350.20, 0.00, 0.000, 0.000, 0.000, 16:31:09.481, 1680381069481
113, 10346.23, -232.95, -252.01, 0.00, 0.000, 0.000, 0.000, 16:31:09.482, 1680381069482
114, 10380.24, -168.03, -209.82, 0.00, 0.000, 0.000, 0.000, 16:31:09.482, 1680381069482
115, 11353.69, 438.39, 386.88, 0.00, 0.000, 0.000, 0.000, 16:31:09.510, 1680381069510
116, 10645.19, -107.20, -63.67, 0.00, 0.000, 0.000, 0.000, 16:31:09.510, 1680381069510
117, 10259.76, -294.05, -256.48, 0.00, 0.000, 0.000, 0.000, 16:31:09.511, 1680381069511
118, 11122.58, 310.04, 255.44, 0.00, 0.000, 0.000, 0.000, 16:31:09.511, 1680381069511
119, 11069.54, 188.61, 189.82, 0.00, 0.000, 0.000, 0.000, 16:31:09.518, 1680381069518
120, 10251.48, -308.55, -281.87, 0.00, 0.000, 0.000, 0.000, 16:31:09.518, 1680381069518
121, 10726.39, 68.24, 14.26, 0.00, 0.000, 0.000, 0.000, 16:31:09.541, 1680381069541
122, 11372.63, 429.43, 384.63, 0.00, 0.000, 0.000, 0.000, 16:31:09.541, 1680381069541
123, 11342.36, -249.88, -226.01, 0.00, 0.000, 0.000, 0.000, 16:31:09.542, 1680381069542
124, 11390.83, -154.18, -174.25, 0.00, 0.000, 0.000, 0.000, 16:31:09.542, 1680381069542
125, 12367.65, 477.07, 407.70, 0.00, 0.000, 0.000, 0.000, 16:31:09.542, 1680381069542
126, 11655.37, -66.30, -51.96, 0.00, 0.000, 0.000, 0.000, 16:31:09.542, 1680381069542
127, 11238.84, -271.40, -268.00, 0.00, 0.000, 0.000, 0.000, 16:31:09.570, 1680381069570
128, 12090.23, 320.82, 246.12, 0.00, 0.000, 0.000, 0.000, 16:31:09.570, 1680381069570
129, 12046.06, 190.40, 184.66, 0.00, 0.000, 0.000, 0.000, 16:31:09.571, 1680381069571
130, 11219.58, -310.15, -283.59, 0.00, 0.000, 0.000, 0.000, 16:31:09.571, 1680381069571
131, 11701.78, 63.44, -4.36, 0.00, 0.000, 0.000, 0.000, 16:31:09.572, 1680381069572
132, 12345.96, 417.53, 362.97, 0.00, 0.000, 0.000, 0.000, 16:31:09.572, 1680381069572
133, 12329.36, -250.43, -238.83, 0.00, 0.000, 0.000, 0.000, 16:31:09.600, 1680381069600
134, 12369.24, -154.23, -179.69, 0.00, 0.000, 0.000, 0.000, 16:31:09.600, 1680381069600
135, 13343.70, 473.94, 436.08, 0.00, 0.000, 0.000, 0.000, 16:31:09.601, 1680381069601
136, 12627.20, -73.94, -2.24, 0.00, 0.000, 0.000, 0.000, 16:31:09.601, 1680381069601
137, 12201.97, -279.19, -219.06, 0.00, 0.000, 0.000, 0.000, 16:31:09.602, 1680381069602
138, 13056.80, 316.61, 282.80, 0.00, 0.000, 0.000, 0.000, 16:31:09.602, 1680381069602
139, 13020.53, 203.92, 185.75, 0.00, 0.000, 0.000, 0.000, 16:31:09.630, 1680381069630
140, 12189.91, -304.56, -315.06, 0.00, 0.000, 0.000, 0.000, 16:31:09.630, 1680381069630
141, 12678.69, 73.92, -28.58, 0.00, 0.000, 0.000, 0.000, 16:31:09.631, 1680381069631
142, 13330.53, 433.30, 348.29, 0.00, 0.000, 0.000, 0.000, 16:31:09.631, 1680381069631
143, 13315.85, -242.33, -236.04, 0.00, 0.000, 0.000, 0.000, 16:31:09.632, 1680381069632
144, 13356.02, -146.33, -183.27, 0.00, 0.000, 0.000, 0.000, 16:31:09.632, 1680381069632
145, 14335.64, 480.79, 415.76, 0.00, 0.000, 0.000, 0.000, 16:31:09.660, 1680381069660
146, 13627.51, -51.12, -32.08, 0.00, 0.000, 0.000, 0.000, 16:31:09.660, 1680381069660
147, 13190.09, -281.77, -266.78, 0.00, 0.000, 0.000, 0.000, 16:31:09.662, 1680381069662
148, 14030.71, 307.60, 239.62, 0.00, 0.000, 0.000, 0.000, 16:31:09.662, 1680381069662
149, 13996.10, 186.66, 173.47, 0.00, 0.000, 0.000, 0.000, 16:31:09.662, 1680381069662
150, 13156.85, -322.95, -294.93, 0.00, 0.000, 0.000, 0.000, 16:31:09.662, 1680381069662
151, 13630.27, 53.31, -4.96, 0.00, 0.000, 0.000, 0.000, 16:31:09.690, 1680381069690
152, 14288.74, 421.37, 372.66, 0.00, 0.000, 0.000, 0.000, 16:31:09.690, 1680381069690
153, 14278.48, -249.14, -235.48, 0.00, 0.000, 0.000, 0.000, 16:31:09.691, 1680381069691
154, 14315.24, -161.17, -205.41, 0.00, 0.000, 0.000, 0.000, 16:31:09.691, 1680381069691
155, 15291.85, 472.65, 388.81, 0.00, 0.000, 0.000, 0.000, 16:31:09.692, 1680381069692
156, 14591.50, -59.21, -60.43, 0.00, 0.000, 0.000, 0.000, 16:31:09.692, 1680381069692
157, 14172.15, -272.85, -275.68, 0.00, 0.000, 0.000, 0.000, 16:31:09.720, 1680381069720
158, 15016.88, 315.52, 241.65, 0.00, 0.000, 0.000, 0.000, 16:31:09.720, 1680381069720
159, 14990.78, 210.65, 187.61, 0.00, 0.000, 0.000, 0.000, 16:31:09.720, 1680381069720
160, 14171.59, -293.46, -281.39, 0.00, 0.000, 0.000, 0.000, 16:31:09.720, 1680381069720
161, 14640.85, 63.76, 9.18, 0.00, 0.000, 0.000, 0.000, 16:31:09.722, 1680381069722
162, 15299.45, 433.73, 379.67, 0.00, 0.000, 0.000, 0.000, 16:31:09.722, 1680381069722
163, 15283.49, -243.46, -223.24, 0.00, 0.000, 0.000, 0.000, 16:31:09.750, 1680381069750
164, 15307.29, -161.21, -190.93, 0.00, 0.000, 0.000, 0.000, 16:31:09.750, 1680381069750
165, 15312.04, 478.86, 401.44, 0.00, 0.000, 0.000, 0.000, 16:31:09.751, 1680381069751
166, 14608.60, -52.87, -52.36, 0.00, 0.000, 0.000, 0.000, 16:31:09.751, 1680381069751
167, 14174.26, -274.62, -268.71, 0.00, 0.000, 0.000, 0.000, 16:31:09.752, 1680381069752
168, 15019.79, 314.45, 242.73, 0.00, 0.000, 0.000, 0.000, 16:31:09.752, 1680381069752
169, 14998.81, 211.92, 203.11, 0.00, 0.000, 0.000, 0.000, 16:31:09.780, 1680381069780
170, 14171.02, -301.50, -267.31, 0.00, 0.000, 0.000, 0.000, 16:31:09.780, 1680381069780
171, 14629.99, 63.51, 13.06, 0.00, 0.000, 0.000, 0.000, 16:31:09.781, 1680381069781
172, 15294.41, 435.66, 393.16, 0.00, 0.000, 0.000, 0.000, 16:31:09.781, 1680381069781
173, 15283.18, -241.98, -206.63, 0.00, 0.000, 0.000, 0.000, 16:31:09.782, 1680381069782
174, 15309.23, -154.47, -175.67, 0.00, 0.000, 0.000, 0.000, 16:31:09.782, 1680381069782
175, 15309.50, 482.03, 415.18, 0.00, 0.000, 0.000, 0.000, 16:31:09.811, 1680381069811
176, 14610.33, -53.77, -37.37, 0.00, 0.000, 0.000, 0.000, 16:31:09.811, 1680381069811
177, 14177.47, -275.23, -273.04, 0.00, 0.000, 0.000, 0.000, 16:31:09.811, 1680381069811
178, 15023.31, 310.15, 238.51, 0.00, 0.000, 0.000, 0.000, 16:31:09.811, 1680381069811
179, 15010.70, 207.52, 188.31, 0.00, 0.000, 0.000, 0.000, 16:31:09.812, 1680381069812
180, 14168.77, -307.24, -286.84, 0.00, 0.000, 0.000, 0.000, 16:31:09.812, 1680381069812
181, 14636.46, 62.52, 4.58, 0.00, 0.000, 0.000, 0.000, 16:31:09.840, 1680381069840
182, 15309.39, 432.14, 382.17, 0.00, 0.000, 0.000, 0.000, 16:31:09.840, 1680381069840
183, 15286.32, -240.54, -223.52, 0.00, 0.000, 0.000, 0.000, 16:31:09.841, 1680381069841
184, 15303.78, -163.85, -193.13, 0.00, 0.000, 0.000, 0.000, 16:31:09.841, 1680381069841
185, 16282.49, 470.32, 395.92, 0.00, 0.000, 0.000, 0.000, 16:31:09.841, 1680381069841
186, 15603.10, -51.33, -39.13, 0.00, 0.000, 0.000, 0.000, 16:31:09.842, 1680381069842
187, 15152.12, -281.12, -265.04, 0.00, 0.000, 0.000, 0.000, 16:31:09.870, 1680381069870
188, 15992.06, 306.29, 253.05, 0.00, 0.000, 0.000, 0.000, 16:31:09.870, 1680381069870
189, 15991.43, 214.93, 217.73, 0.00, 0.000, 0.000, 0.000, 16:31:09.871, 1680381069871
190, 15146.14, -301.59, -276.17, 0.00, 0.000, 0.000, 0.000, 16:31:09.871, 1680381069871
191, 15607.21, 61.35, -2.26, 0.00, 0.000, 0.000, 0.000, 16:31:09.872, 1680381069872
192, 16277.66, 435.42, 382.32, 0.00, 0.000, 0.000, 0.000, 16:31:09.872, 1680381069872
193, 16269.13, -236.31, -224.34, 0.00, 0.000, 0.000, 0.000, 16:31:09.900, 1680381069900
194, 16286.70, -152.87, -179.75, 0.00, 0.000, 0.000, 0.000, 16:31:09.900, 1680381069900
195, 16294.37, 484.58, 416.33, 0.00, 0.000, 0.000, 0.000, 16:31:09.901, 1680381069901
196, 15605.27, -47.83, -39.10, 0.00, 0.000, 0.000, 0.000, 16:31:09.901, 1680381069901
197, 15171.90, -272.73, -270.91, 0.00, 0.000, 0.000, 0.000, 16:31:09.901, 1680381069901
198, 16003.89, 309.33, 222.04, 0.00, 0.000, 0.000, 0.000, 16:31:09.901, 1680381069901
199, 16002.91, 216.08, 194.45, 0.00, 0.000, 0.000, 0.000, 16:31:09.930, 1680381069930
200, 15152.76, -313.03, -290.34, 0.00, 0.000, 0.000, 0.000, 16:31:09.930, 1680381069930
0, -83.52, 44.23, -7.15, 0.00, 0.000, 0.000, 0.000, 16:31:09.931, 1680381069931
1, 604.37, 439.98, 394.54, 0.00, 0.000, 0.000, 0.000, 16:31:09.931, 1680381069931
2, 582.00, -238.37, -212.10, 0.00, 0.000, 0.000, 0.000, 16:31:09.931, 1680381069931
3, 588.47, -166.47, -192.43, 0.00, 0.000, 0.000, 0.000, 16:31:09.933, 1680381069933
4, 1567.02, 469.19, 392.71, 0.00, 0.000, 0.000, 0.000, 16:31:09.933, 1680381069933
5, 887.68, -49.74, -52.63, 0.00, 0.000, 0.000, 0.000, 16:31:09.960, 1680381069960
6, 435.61, -285.79, -278.48, 0.00, 0.000, 0.000, 0.000, 16:31:09.960, 1680381069960
7, 1265.25, 295.16, 224.47, 0.00, 0.000, 0.000, 0.000, 16:31:09.967, 1680381069967
8, 1281.33, 215.28, 197.24, 0.00, 0.000, 0.000, 0.000, 16:31:09.967, 1680381069967
9, 439.45, -304.53, -287.59, 0.00, 0.000, 0.000, 0.000, 16:31:09.990, 1680381069990
10, 890.90, 47.02, -2.44, 0.00, 0.000, 0.000, 0.000, 16:31:09.990, 1680381069990
11, 1580.37, 436.60, 391.39, 0.00, 0.000, 0.000, 0.000, 16:31:09.991, 1680381069991
12, 1562.94, -236.94, -212.54, 0.00, 0.000, 0.000, 0.000, 16:31:09.991, 1680381069991
13, 1571.80, -165.78, -193.26, 0.00, 0.000, 0.000, 0.000, 16:31:09.991, 1680381069991
14, 1573.59, 468.79, 393.42, 0.00, 0.000, 0.000, 0.000, 16:31:09.991, 1680381069991
15, 908.24, -49.48, -38.00, 0.00, 0.000, 0.000, 0.000, 16:31:09.992, 1680381069992
16, 450.66, -283.40, -280.82, 0.00, 0.000, 0.000, 0.000, 16:31:09.992, 1680381069992
17, 1275.43, 299.47, 221.99, 0.00, 0.000, 0.000, 0.000, 16:31:10.020, 1680381070020
18, 1300.38, 222.31, 197.25, 0.00, 0.000, 0.000, 0.000, 16:31:10.020, 1680381070020
19, 444.95, -306.21, -283.77, 0.00, 0.000, 0.000, 0.000, 16:31:10.021, 1680381070021
20, 889.96, 49.41, -10.90, 0.00, 0.000, 0.000, 0.000, 16:31:10.021, 1680381070021
21, 1572.60, 433.11, 388.48, 0.00, 0.000, 0.000, 0.000, 16:31:10.050, 1680381070050
22, 1554.91, -237.17, -210.12, 0.00, 0.000, 0.000, 0.000, 16:31:10.050, 1680381070050
23, 1564.63, -164.01, -188.77, 0.00, 0.000, 0.000, 0.000, 16:31:10.051, 1680381070051
24, 2541.36, 461.10, 390.42, 0.00, 0.000, 0.000, 0.000, 16:31:10.051, 1680381070051
25, 1868.58, -53.56, -44.83, 0.00, 0.000, 0.000, 0.000, 16:31:10.052, 1680381070052
26, 1416.86, -284.15, -281.86, 0.00, 0.000, 0.000, 0.000, 16:31:10.052, 1680381070052
27, 2236.04, 287.54, 214.91, 0.00, 0.000, 0.000, 0.000, 16:31:10.053, 1680381070053
28, 2269.16, 217.81, 193.37, 0.00, 0.000, 0.000, 0.000, 16:31:10.053, 1680381070053
29, 1416.51, -311.72, -286.65, 0.00, 0.000, 0.000, 0.000, 16:31:10.080, 1680381070080
30, 1859.93, 35.13, -11.88, 0.00, 0.000, 0.000, 0.000, 16:31:10.080, 1680381070080
31, 2551.65, 433.16, 383.86, 0.00, 0.000, 0.000, 0.000, 16:31:10.081, 1680381070081
32, 2547.42, -239.22, -213.37, 0.00, 0.000, 0.000, 0.000, 16:31:10.081, 1680381070081
33, 2540.58, -171.24, -199.19, 0.00, 0.000, 0.000, 0.000, 16:31:10.110, 1680381070110
34, 2542.62, 463.84, 389.70, 0.00, 0.000, 0.000, 0.000, 16:31:10.110, 1680381070110
35, 1878.60, -42.55, -40.13, 0.00, 0.000, 0.000, 0.000, 16:31:10.111, 1680381070111
36, 1418.11, -281.73, -281.37, 0.00, 0.000, 0.000, 0.000, 16:31:10.111, 1680381070111
37, 2244.54, 298.34, 219.08, 0.00, 0.000, 0.000, 0.000, 16:31:10.112, 1680381070112
38, 2280.91, 232.45, 217.28, 0.00, 0.000, 0.000, 0.000, 16:31:10.112, 1680381070112
39, 1421.00, -305.28, -278.03, 0.00, 0.000, 0.000, 0.000, 16:31:10.113, 1680381070113
40, 1865.46, 44.53, -8.51, 0.00, 0.000, 0.000, 0.000, 16:31:10.113, 1680381070113
41, 2561.28, 442.21, 391.17, 0.00, 0.000, 0.000, 0.000, 16:31:10.140, 1680381070140
42, 2550.19, -228.82, -206.54, 0.00, 0.000, 0.000, 0.000, 16:31:10.140, 1680381070140
43, 2547.08, -166.42, -193.82, 0.00, 0.000, 0.000, 0.000, 16:31:10.141, 1680381070141
44, 2548.73, 472.63, 400.12, 0.00, 0.000, 0.000, 0.000, 16:31:10.141, 1680381070141
45, 1898.08, -32.69, -23.48, 0.00, 0.000, 0.000, 0.000, 16:31:10.171, 1680381070171
46, 1436.91, -278.14, -273.97, 0.00, 0.000, 0.000, 0.000, 16:31:10.171, 1680381070171
47, 2257.94, 299.71, 225.36, 0.00, 0.000, 0.000, 0.000, 16:31:10.172, 1680381070172
48, 2286.67, 233.35, 210.58, 0.00, 0.000, 0.000, 0.000, 16:31:10.172, 1680381070172
49, 1427.94, -303.07, -281.52, 0.00, 0.000, 0.000, 0.000, 16:31:10.172, 1680381070172
50, 1868.33, 45.93, -4.46, 0.00, 0.000, 0.000, 0.000, 16:31:10.172, 1680381070172
51, 2569.30, 448.85, 404.88, 0.00, 0.000, 0.000, 0.000, 16:31:10.173, 1680381070173
52, 2547.87, -234.59, -214.06, 0.00, 0.000, 0.000, 0.000, 16:31:10.173, 1680381070173
53, 2539.88, -171.40, -203.27, 0.00, 0.000, 0.000, 0.000, 16:31:10.200, 1680381070200
54, 2546.18, 473.82, 403.96, 0.00, 0.000, 0.000, 0.000, 16:31:10.200, 1680381070200
55, 1889.90, -36.20, -28.63, 0.00, 0.000, 0.000, 0.000, 16:31:10.201, 1680381070201
56, 1420.13, -284.22, -279.12, 0.00, 0.000, 0.000, 0.000, 16:31:10.201, 1680381070201
57, 2242.54, 302.22, 220.07, 0.00, 0.000, 0.000, 0.000, 16:31:10.230, 1680381070230
58, 2285.51, 227.06, 209.82, 0.00, 0.000, 0.000, 0.000, 16:31:10.230, 1680381070230
59, 1429.60, -301.83, -280.26, 0.00, 0.000, 0.000, 0.000, 16:31:10.232, 1680381070232
60, 1859.36, 41.05, -12.57, 0.00, 0.000, 0.000, 0.000, 16:31:10.232, 1680381070232
61, 2571.36, 452.15, 398.45, 0.00, 0.000, 0.000, 0.000, 16:31:10.232, 1680381070232
62, 2560.97, -224.19, -196.85, 0.00, 0.000, 0.000, 0.000, 16:31:10.232, 1680381070232
63, 2547.55, -164.81, -191.88, 0.00, 0.000, 0.000, 0.000, 16:31:10.233, 1680381070233
64, 2561.87, 480.29, 406.33, 0.00, 0.000, 0.000, 0.000, 16:31:10.233, 1680381070233
65, 1906.18, -30.24, -20.63, 0.00, 0.000, 0.000, 0.000, 16:31:10.260, 1680381070260
66, 1441.87, -276.78, -267.48, 0.00, 0.000, 0.000, 0.000, 16:31:10.260, 1680381070260
67, 2259.23, 301.77, 228.89, 0.00, 0.000, 0.000, 0.000, 16:31:10.261, 1680381070261
68, 2302.82, 243.22, 222.16, 0.00, 0.000, 0.000, 0.000, 16:31:10.261, 1680381070261
69, 1438.31, -300.42, -272.42, 0.00, 0.000, 0.000, 0.000, 16:31:10.290, 1680381070290
70, 1864.32, 41.47, -9.78, 0.00, 0.000, 0.000, 0.000, 16:31:10.290, 1680381070290
71, 2571.88, 447.60, 402.15, 0.00, 0.000, 0.000, 0.000, 16:31:10.291, 1680381070291
72, 2555.54, -230.41, -200.34, 0.00, 0.000, 0.000, 0.000, 16:31:10.291, 1680381070291
73, 2540.62, -176.98, -198.94, 0.00, 0.000, 0.000, 0.000, 16:31:10.291, 1680381070291
74, 2549.65, 467.43, 403.38, 0.00, 0.000, 0.000, 0.000, 16:31:10.291, 1680381070291
75, 1907.54, -31.97, -22.39, 0.00, 0.000, 0.000, 0.000, 16:31:10.292, 1680381070292
76, 1429.04, -281.08, -274.91, 0.00, 0.000, 0.000, 0.000, 16:31:10.292, 1680381070292
77, 2235.21, 287.65, 212.94, 0.00, 0.000, 0.000, 0.000, 16:31:10.321, 1680381070321
78, 2295.25, 233.37, 221.73, 0.00, 0.000, 0.000, 0.000, 16:31:10.321, 1680381070321
79, 1438.95, -300.61, -270.92, 0.00, 0.000, 0.000, 0.000, 16:31:10.322, 1680381070322
80, 1869.70, 45.09, -7.93, 0.00, 0.000, 0.000, 0.000, 16:31:10.322, 1680381070322
81, 2577.97, 451.41, 405.09, 0.00, 0.000, 0.000, 0.000, 16:31:10.350, 1680381070350
82, 2566.26, -215.70, -205.62, 0.00, 0.000, 0.000, 0.000, 16:31:10.350, 1680381070350
83, 2538.08, -157.54, -208.01, 0.00, 0.000, 0.000, 0.000, 16:31:10.351, 1680381070351
84, 3504.06, 482.79, 369.50, 0.00, 0.000, 0.000, 0.000, 16:31:10.351, 1680381070351
85, 2861.83, -15.33, -58.66, 0.00, 0.000, 0.000, 0.000, 16:31:10.352, 1680381070352
86, 2373.93, -288.75, -305.77, 0.00, 0.000, 0.000, 0.000, 16:31:10.352, 1680381070352
87, 3179.51, 250.38, 186.46, 0.00, 0.000, 0.000, 0.000, 16:31:10.353, 1680381070353
88, 3260.27, 201.50, 210.98, 0.00, 0.000, 0.000, 0.000, 16:31:10.353, 1680381070353
89, 2400.80, -329.51, -275.27, 0.00, 0.000, 0.000, 0.000, 16:31:10.380, 1680381070380
90, 2843.33, 24.65, -5.85, 0.00, 0.000, 0.000, 0.000, 16:31:10.380, 1680381070380
91, 3565.11, 447.27, 414.95, 0.00, 0.000, 0.000, 0.000, 16:31:10.381, 1680381070381
92, 3553.30, -228.24, -191.55, 0.00, 0.000, 0.000, 0.000, 16:31:10.381, 1680381070381
93, 3521.58, -177.38, -193.14, 0.00, 0.000, 0.000, 0.000, 16:31:10.410, 1680381070410
94, 3522.80, 461.46, 395.47, 0.00, 0.000, 0.000, 0.000, 16:31:10.410, 1680381070410
95, 2881.78, -30.68, -25.63, 0.00, 0.000, 0.000, 0.000, 16:31:10.412, 1680381070412
96, 2405.28, -282.51, -281.92, 0.00, 0.000, 0.000, 0.000, 16:31:10.412, 1680381070412
97, 3213.81, 283.26, 210.17, 0.00, 0.000, 0.000, 0.000, 16:31:10.412, 1680381070412
98, 3280.17, 239.84, 218.16, 0.00, 0.000, 0.000, 0.000, 16:31:10.412, 1680381070412
99, 2410.90, -299.72, -275.61, 0.00, 0.000, 0.000, 0.000, 16:31:10.418, 1680381070418
100, 2830.08, 35.36, -20.88, 0.00, 0.000, 0.000, 0.000, 16:31:10.418, 1680381070418
101, 3550.24, 445.41, 399.66, 0.00, 0.000, 0.000, 0.000, 16:31:10.440, 1680381070440
102, 3538.97, -233.11, -205.99, 0.00, 0.000, 0.000, 0.000, 16:31:10.440, 1680381070440
103, 3515.24, -176.47, -205.83, 0.00, 0.000, 0.000, 0.000, 16:31:10.441, 1680381070441
104, 3522.22, 463.76, 379.40, 0.00, 0.000, 0.000, 0.000, 16:31:10.441, 1680381070441
105, 2884.61, -37.55, -39.83, 0.00, 0.000, 0.000, 0.000, 16:31:10.470, 1680381070470
106, 2401.90, -287.07, -282.03, 0.00, 0.000, 0.000, 0.000, 16:31:10.470, 1680381070470
107, 3205.65, 284.03, 228.12, 0.00, 0.000, 0.000, 0.000, 16:31:10.471, 1680381070471
108, 3273.30, 236.97, 250.83, 0.00, 0.000, 0.000, 0.000, 16:31:10.471, 1680381070471
109, 2401.10, -302.34, -229.31, 0.00, 0.000, 0.000, 0.000, 16:31:10.471, 1680381070471
110, 2821.88, 30.73, 27.50, 0.00, 0.000, 0.000, 0.000, 16:31:10.471, 1680381070471
111, 3552.46, 452.43, 432.45, 0.00, 0.000, 0.000, 0.000, 16:31:10.472, 1680381070472
112, 3539.88, -220.13, -199.51, 0.00, 0.000, 0.000, 0.000, 16:31:10.472, 1680381070472
113, 3506.46, -175.64, -223.58, 0.00, 0.000, 0.000, 0.000, 16:31:10.500, 1680381070500
114, 3511.88, 471.78, 354.93, 0.00, 0.000, 0.000, 0.000, 16:31:10.500, 1680381070500
115, 2884.78, -23.20, -54.41, 0.00, 0.000, 0.000, 0.000, 16:31:10.501, 1680381070501
116, 2402.24, -284.65, -294.71, 0.00, 0.000, 0.000, 0.000, 16:31:10.501, 1680381070501
117, 3208.72, 281.61, 203.15, 0.00, 0.000, 0.000, 0.000, 16:31:10.530, 1680381070530
118, 3289.13, 240.27, 227.73, 0.00, 0.000, 0.000, 0.000, 16:31:10.530, 1680381070530
119, 2411.07, -305.52, -272.77, 0.00, 0.000, 0.000, 0.000, 16:31:10.531, 1680381070531
120, 2820.56, 28.45, -11.67, 0.00, 0.000, 0.000, 0.000, 16:31:10.531, 1680381070531
121, 3550.54, 452.61, 409.97, 0.00, 0.000, 0.000, 0.000, 16:31:10.532, 1680381070532
122, 3537.72, -226.91, -200.34, 0.00, 0.000, 0.000, 0.000, 16:31:10.532, 1680381070532
123, 3497.99, -181.81, -203.43, 0.00, 0.000, 0.000, 0.000, 16:31:10.533, 1680381070533
124, 3502.91, 463.88, 391.23, 0.00, 0.000, 0.000, 0.000, 16:31:10.533, 1680381070533
125, 2879.64, -25.20, -23.74, 0.00, 0.000, 0.000, 0.000, 16:31:10.561, 1680381070561
126, 2389.88, -282.75, -290.95, 0.00, 0.000, 0.000, 0.000, 16:31:10.561, 1680381070561
127, 3192.06, 277.09, 187.97, 0.00, 0.000, 0.000, 0.000, 16:31:10.562, 1680381070562
128, 3279.20, 245.59, 214.98, 0.00, 0.000, 0.000, 0.000, 16:31:10.562, 1680381070562
129, 2402.69, -300.48, -286.52, 0.00, 0.000, 0.000, 0.000, 16:31:10.590, 1680381070590
130, 2812.24, 29.28, -32.07, 0.00, 0.000, 0.000, 0.000, 16:31:10.590, 1680381070590
131, 3551.39, 457.33, 403.20, 0.00, 0.000, 0.000, 0.000, 16:31:10.591, 1680381070591
132, 3543.76, -221.37, -192.91, 0.00, 0.000, 0.000, 0.000, 16:31:10.591, 1680381070591
133, 3512.70, -178.78, -194.04, 0.00, 0.000, 0.000, 0.000, 16:31:10.592, 1680381070592
134, 3518.92, 469.09, 395.80, 0.00, 0.000, 0.000, 0.000, 16:31:10.592, 1680381070592
135, 2904.45, -18.29, -20.39, 0.00, 0.000, 0.000, 0.000, 16:31:10.593, 1680381070593
136, 2404.51, -286.49, -289.73, 0.00, 0.000, 0.000, 0.000, 16:31:10.593, 1680381070593
137, 3202.30, 277.57, 202.48, 0.00, 0.000, 0.000, 0.000, 16:31:10.620, 1680381070620
138, 3295.72, 246.87, 220.20, 0.00, 0.000, 0.000, 0.000, 16:31:10.620, 1680381070620
139, 2404.21, -314.57, -290.67, 0.00, 0.000, 0.000, 0.000, 16:31:10.621, 1680381070621
140, 2799.93, 18.44, -34.93, 0.00, 0.000, 0.000, 0.000, 16:31:10.621, 1680381070621
141, 3540.19, 451.50, 394.29, 0.00, 0.000, 0.000, 0.000, 16:31:10.650, 1680381070650
142, 3530.51, -230.49, -202.74, 0.00, 0.000, 0.000, 0.000, 16:31:10.650, 1680381070650
143, 3499.41, -183.47, -196.46, 0.00, 0.000, 0.000, 0.000, 16:31:10.651, 1680381070651
144, 3503.74, 463.27, 401.90, 0.00, 0.000, 0.000, 0.000, 16:31:10.651, 1680381070651
145, 2891.23, -26.08, -10.51, 0.00, 0.000, 0.000, 0.000, 16:31:10.652, 1680381070652
146, 2389.44, -294.35, -277.95, 0.00, 0.000, 0.000, 0.000, 16:31:10.652, 1680381070652
147, 3193.94, 275.02, 206.20, 0.00, 0.000, 0.000, 0.000, 16:31:10.653, 1680381070653
148, 3297.14, 252.49, 230.17, 0.00, 0.000, 0.000, 0.000, 16:31:10.653, 1680381070653
149, 2417.47, -304.58, -276.79, 0.00, 0.000, 0.000, 0.000, 16:31:10.680, 1680381070680
150, 2821.04, 30.17, -27.45, 0.00, 0.000, 0.000, 0.000, 16:31:10.680, 1680381070680
151, 3561.82, 458.15, 404.04, 0.00, 0.000, 0.000, 0.000, 16:31:10.681, 1680381070681
152, 3555.16, -225.17, -200.29, 0.00, 0.000, 0.000, 0.000, 16:31:10.681, 1680381070681
153, 3511.93, -184.48, -208.51, 0.00, 0.000, 0.000, 0.000, 16:31:10.710, 1680381070710
154, 4491.77, 464.76, 382.19, 0.00, 0.000, 0.000, 0.000, 16:31:10.710, 1680381070710
155, 3892.86, -14.66, -17.64, 0.00, 0.000, 0.000, 0.000, 16:31:10.711, 1680381070711
156, 3385.83, -282.93, -286.70, 0.00, 0.000, 0.000, 0.000, 16:31:10.711, 1680381070711
157, 4180.36, 272.39, 199.16, 0.00, 0.000, 0.000, 0.000, 16:31:10.711, 1680381070711
158, 4289.90, 254.84, 232.84, 0.00, 0.000, 0.000, 0.000, 16:31:10.711, 1680381070711
159, 3400.52, -302.84, -263.52, 0.00, 0.000, 0.000, 0.000, 16:31:10.718, 1680381070718
160, 3795.62, 24.76, -8.81, 0.00, 0.000, 0.000, 0.000, 16:31:10.718, 1680381070718
161, 4538.53, 461.13, 424.17, 0.00, 0.000, 0.000, 0.000, 16:31:10.740, 1680381070740
162, 4529.18, -217.16, -189.66, 0.00, 0.000, 0.000, 0.000, 16:31:10.740, 1680381070740
163, 4478.50, -178.37, -210.92, 0.00, 0.000, 0.000, 0.000, 16:31:10.741, 1680381070741
164, 4487.58, 464.43, 379.11, 0.00, 0.000, 0.000, 0.000, 16:31:10.741, 1680381070741
165, 3891.32, -10.67, -5.18, 0.00, 0.000, 0.000, 0.000, 16:31:10.770, 1680381070770
166, 3381.15, -287.80, -280.43, 0.00, 0.000, 0.000, 0.000, 16:31:10.770, 1680381070770
167, 4174.41, 272.83, 203.38, 0.00, 0.000, 0.000, 0.000, 16:31:10.771, 1680381070771
168, 4288.80, 257.28, 228.16, 0.00, 0.000, 0.000, 0.000, 16:31:10.771, 1680381070771
169, 3399.94, -296.86, -283.51, 0.00, 0.000, 0.000, 0.000, 16:31:10.772, 1680381070772
170, 3793.98, 17.67, -40.20, 0.00, 0.000, 0.000, 0.000, 16:31:10.772, 1680381070772
171, 4539.96, 452.80, 402.95, 0.00, 0.000, 0.000, 0.000, 16:31:10.772, 1680381070772
172, 4536.78, -225.57, -191.47, 0.00, 0.000, 0.000, 0.000, 16:31:10.772, 1680381070772
173, 4486.46, -196.08, -204.16, 0.00, 0.000, 0.000, 0.000, 16:31:10.800, 1680381070800
174, 5466.80, 453.56, 392.49, 0.00, 0.000, 0.000, 0.000, 16:31:10.800, 1680381070800
175, 4866.01, -20.25, -7.06, 0.00, 0.000, 0.000, 0.000, 16:31:10.801, 1680381070801
176, 4354.53, -292.01, -292.34, 0.00, 0.000, 0.000, 0.000, 16:31:10.801, 1680381070801
177, 5136.15, 263.11, 183.36, 0.00, 0.000, 0.000, 0.000, 16:31:10.831, 1680381070831
178, 5255.82, 250.26, 219.29, 0.00, 0.000, 0.000, 0.000, 16:31:10.831, 1680381070831
179, 4353.86, -310.74, -290.39, 0.00, 0.000, 0.000, 0.000, 16:31:10.832, 1680381070832
180, 4753.83, 17.94, -41.70, 0.00, 0.000, 0.000, 0.000, 16:31:10.832, 1680381070832
181, 5515.36, 455.12, 411.83, 0.00, 0.000, 0.000, 0.000, 16:31:10.834, 1680381070834
182, 5514.74, -218.40, -200.17, 0.00, 0.000, 0.000, 0.000, 16:31:10.834, 1680381070834
183, 5458.74, -188.02, -205.46, 0.00, 0.000, 0.000, 0.000, 16:31:10.834, 1680381070834
184, 5470.16, 461.48, 389.93, 0.00, 0.000, 0.000, 0.000, 16:31:10.834, 1680381070834
185, 4881.34, -6.08, -7.62, 0.00, 0.000, 0.000, 0.000, 16:31:10.861, 1680381070861
186, 4370.24, -287.83, -282.95, 0.00, 0.000, 0.000, 0.000, 16:31:10.861, 1680381070861
187, 5160.04, 274.25, 194.52, 0.00, 0.000, 0.000, 0.000, 16:31:10.862, 1680381070862
188, 5280.24, 260.24, 232.64, 0.00, 0.000, 0.000, 0.000, 16:31:10.862, 1680381070862
189, 4389.12, -302.11, -278.04, 0.00, 0.000, 0.000, 0.000, 16:31:10.890, 1680381070890
190, 4775.51, 18.74, -34.93, 0.00, 0.000, 0.000, 0.000, 16:31:10.890, 1680381070890
191, 5533.23, 459.77, 409.40, 0.00, 0.000, 0.000, 0.000, 16:31:10.891, 1680381070891
192, 5531.85, -220.29, -188.23, 0.00, 0.000, 0.000, 0.000, 16:31:10.891, 1680381070891
193, 5468.97, -189.64, -211.22, 0.00, 0.000, 0.000, 0.000, 16:31:10.892, 1680381070892
194, 6447.87, 462.40, 389.55, 0.00, 0.000, 0.000, 0.000, 16:31:10.892, 1680381070892
195, 5856.44, -5.28, -2.88, 0.00, 0.000, 0.000, 0.000, 16:31:10.892, 1680381070892
196, 5336.96, -287.07, -278.73, 0.00, 0.000, 0.000, 0.000, 16:31:10.892, 1680381070892
197, 6117.80, 260.76, 191.86, 0.00, 0.000, 0.000, 0.000, 16:31:10.920, 1680381070920
198, 6253.95, 257.40, 234.69, 0.00, 0.000, 0.000, 0.000, 16:31:10.920, 1680381070920
199, 5353.08, -302.18, -282.47, 0.00, 0.000, 0.000, 0.000, 16:31:10.920, 1680381070920
