%OpenBCI Raw EEG Data
%Number of channels = 4
%Sample Rate = 200.0 Hz
%First Column = SampleIndex
%Last Column = Timestamp 
%Other Columns = EEG data in microvolts followed by Accel Data (in G) interleaved with Aux Data
0, -112.21, -61.62, -65.65, 0.00, 0.000, 0.000, 0.000, 16:33:19.083, 1680381199083
1, -428.77, -201.03, -220.67, 0.00, 0.000, 0.000, 0.000, 16:33:19.084, 1680381199084
2, 343.85, 324.80, 273.61, 0.00, 0.000, 0.000, 0.000, 16:33:19.084, 1680381199084
3, 222.25, 162.54, 142.59, 0.00, 0.000, 0.000, 0.000, 16:33:19.113, 1680381199113
4, -467.25, -240.75, -252.33, 0.00, 0.000, 0.000, 0.000, 16:33:19.113, 1680381199113
5, 1.38, 104.55, 57.52, 0.00, 0.000, 0.000, 0.000, 16:33:19.113, 1680381199113
6, 494.92, 361.44, 333.46, 0.00, 0.000, 0.000, 0.000, 16:33:19.113, 1680381199113
7, -362.98, -202.31, -213.11, 0.00, 0.000, 0.000, 0.000, 16:33:19.114, 1680381199114
8, -279.98, -95.61, -135.45, 0.00, 0.000, 0.000, 0.000, 16:33:19.114, 1680381199114
9, 566.25, 434.95, 393.94, 0.00, 0.000, 0.000, 0.000, 16:33:19.116, 1680381199116
10, -113.40, -52.48, -68.69, 0.00, 0.000, 0.000, 0.000, 16:33:19.116, 1680381199116
11, -428.48, -192.22, -232.91, 0.00, 0.000, 0.000, 0.000, 16:33:19.142, 1680381199142
12, 331.14, 328.46, 250.79, 0.00, 0.000, 0.000, 0.000, 16:33:19.142, 1680381199142
13, 199.08, 171.01, 111.43, 0.00, 0.000, 0.000, 0.000, 16:33:19.143, 1680381199143
14, -486.34, -236.62, -291.31, 0.00, 0.000, 0.000, 0.000, 16:33:19.143, 1680381199143
15, -45.71, 91.34, 10.29, 0.00, 0.000, 0.000, 0.000, 16:33:19.172, 1680381199172
16, 461.48, 322.64, 306.68, 0.00, 0.000, 0.000, 0.000, 16:33:19.172, 1680381199172
17, -397.35, -249.41, -226.93, 0.00, 0.000, 0.000, 0.000, 16:33:19.173, 1680381199173
18, -301.45, -129.72, -137.99, 0.00, 0.000, 0.000, 0.000, 16:33:19.173, 1680381199173
19, 570.34, 419.26, 408.68, 0.00, 0.000, 0.000, 0.000, 16:33:19.174, 1680381199174
20, -109.01, -70.08, -60.61, 0.00, 0.000, 0.000, 0.000, 16:33:19.174, 1680381199174
21, -430.09, -216.33, -229.54, 0.00, 0.000, 0.000, 0.000, 16:33:19.175, 1680381199175
22, 343.50, 313.05, 268.02, 0.00, 0.000, 0.000, 0.000, 16:33:19.175, 1680381199175
23, 233.47, 160.36, 143.65, 0.00, 0.000, 0.000, 0.000, 16:33:19.203, 1680381199203
24, -485.41, -266.33, -260.84, 0.00, 0.000, 0.000, 0.000, 16:33:19.203, 1680381199203
25, -4.80, 93.54, 35.08, 0.00, 0.000, 0.000, 0.000, 16:33:19.210, 1680381199210
26, 535.70, 377.58, 345.04, 0.00, 0.000, 0.000, 0.000, 16:33:19.210, 1680381199210
27, -394.20, -223.64, -222.40, 0.00, 0.000, 0.000, 0.000, 16:33:19.233, 1680381199233
28, -327.13, -122.93, -158.20, 0.00, 0.000, 0.000, 0.000, 16:33:19.233, 1680381199233
29, 588.20, 448.49, 399.67, 0.00, 0.000, 0.000, 0.000, 16:33:19.233, 1680381199233
30, -140.00, -78.78, -74.79, 0.00, 0.000, 0.000, 0.000, 16:33:19.233, 1680381199233
31, -489.47, -248.54, -260.94, 0.00, 0.000, 0.000, 0.000, 16:33:19.234, 1680381199234
32, 346.21, 318.62, 253.29, 0.00, 0.000, 0.000, 0.000, 16:33:19.234, 1680381199234
33, 233.45, 158.23, 133.17, 0.00, 0.000, 0.000, 0.000, 16:33:19.235, 1680381199235
34, -517.66, -277.24, -288.99, 0.00, 0.000, 0.000, 0.000, 16:33:19.235, 1680381199235
35, -18.32, 94.06, 19.93, 0.00, 0.000, 0.000, 0.000, 16:33:19.263, 1680381199263
36, 548.03, 392.38, 362.39, 0.00, 0.000, 0.000, 0.000, 16:33:19.263, 1680381199263
37, -410.13, -231.37, -201.99, 0.00, 0.000, 0.000, 0.000, 16:33:19.263, 1680381199263
38, -333.20, -118.17, -114.81, 0.00, 0.000, 0.000, 0.000, 16:33:19.263, 1680381199263
39, 597.47, 465.97, 452.83, 0.00, 0.000, 0.000, 0.000, 16:33:19.293, 1680381199293
40, -140.23, -72.95, -39.05, 0.00, 0.000, 0.000, 0.000, 16:33:19.293, 1680381199293
41, -492.57, -237.64, -239.66, 0.00, 0.000, 0.000, 0.000, 16:33:19.294, 1680381199294
42, 352.57, 333.59, 260.72, 0.00, 0.000, 0.000, 0.000, 16:33:19.294, 1680381199294
43, 236.28, 170.57, 130.86, 0.00, 0.000, 0.000, 0.000, 16:33:19.294, 1680381199294
44, -528.25, -275.28, -307.52, 0.00, 0.000, 0.000, 0.000, 16:33:19.294, 1680381199294
45, -38.20, 89.25, 2.95, 0.00, 0.000, 0.000, 0.000, 16:33:19.295, 1680381199295
46, 542.72, 389.36, 344.40, 0.00, 0.000, 0.000, 0.000, 16:33:19.295, 1680381199295
47, -417.22, -235.50, -224.75, 0.00, 0.000, 0.000, 0.000, 16:33:19.323, 1680381199323
48, -336.28, -115.12, -143.05, 0.00, 0.000, 0.000, 0.000, 16:33:19.323, 1680381199323
49, 606.51, 466.36, 430.07, 0.00, 0.000, 0.000, 0.000, 16:33:19.323, 1680381199323
50, -135.90, -71.48, -53.17, 0.00, 0.000, 0.000, 0.000, 16:33:19.323, 1680381199323
51, -504.40, -240.64, -243.07, 0.00, 0.000, 0.000, 0.000, 16:33:19.353, 1680381199353
52, 340.77, 326.97, 272.35, 0.00, 0.000, 0.000, 0.000, 16:33:19.353, 1680381199353
53, 245.25, 178.17, 168.69, 0.00, 0.000, 0.000, 0.000, 16:33:19.354, 1680381199354
54, -529.62, -274.03, -274.82, 0.00, 0.000, 0.000, 0.000, 16:33:19.354, 1680381199354
55, -41.15, 84.88, 17.94, 0.00, 0.000, 0.000, 0.000, 16:33:19.355, 1680381199355
56, 542.61, 392.78, 343.65, 0.00, 0.000, 0.000, 0.000, 16:33:19.355, 1680381199355
57, -420.38, -233.25, -238.26, 0.00, 0.000, 0.000, 0.000, 16:33:19.355, 1680381199355
58, -355.05, -128.07, -174.15, 0.00, 0.000, 0.000, 0.000, 16:33:19.355, 1680381199355
59, 591.93, 465.81, 401.73, 0.00, 0.000, 0.000, 0.000, 16:33:19.383, 1680381199383
60, -146.27, -72.68, -68.48, 0.00, 0.000, 0.000, 0.000, 16:33:19.383, 1680381199383
61, -509.28, -246.03, -254.69, 0.00, 0.000, 0.000, 0.000, 16:33:19.383, 1680381199383
62, 346.34, 329.38, 272.86, 0.00, 0.000, 0.000, 0.000, 16:33:19.383, 1680381199383
63, 243.83, 165.47, 156.59, 0.00, 0.000, 0.000, 0.000, 16:33:19.413, 1680381199413
64, -533.53, -291.06, -285.32, 0.00, 0.000, 0.000, 0.000, 16:33:19.413, 1680381199413
65, -36.65, 86.04, 27.79, 0.00, 0.000, 0.000, 0.000, 16:33:19.413, 1680381199413
66, 551.80, 389.02, 359.69, 0.00, 0.000, 0.000, 0.000, 16:33:19.413, 1680381199413
67, -413.46, -232.91, -235.53, 0.00, 0.000, 0.000, 0.000, 16:33:19.414, 1680381199414
68, -352.55, -133.06, -168.93, 0.00, 0.000, 0.000, 0.000, 16:33:19.414, 1680381199414
69, 592.94, 450.55, 398.92, 0.00, 0.000, 0.000, 0.000, 16:33:19.415, 1680381199415
70, -139.84, -82.36, -78.10, 0.00, 0.000, 0.000, 0.000, 16:33:19.415, 1680381199415
71, -516.17, -257.38, -266.86, 0.00, 0.000, 0.000, 0.000, 16:33:19.443, 1680381199443
72, 323.57, 310.40, 249.88, 0.00, 0.000, 0.000, 0.000, 16:33:19.443, 1680381199443
73, 235.17, 163.20, 154.63, 0.00, 0.000, 0.000, 0.000, 16:33:19.443, 1680381199443
74, -534.67, -292.88, -282.64, 0.00, 0.000, 0.000, 0.000, 16:33:19.443, 1680381199443
75, -53.24, 68.81, 22.32, 0.00, 0.000, 0.000, 0.000, 16:33:19.473, 1680381199473
76, 534.61, 378.82, 350.52, 0.00, 0.000, 0.000, 0.000, 16:33:19.473, 1680381199473
77, -426.91, -247.37, -232.22, 0.00, 0.000, 0.000, 0.000, 16:33:19.474, 1680381199474
78, -366.32, -151.65, -176.05, 0.00, 0.000, 0.000, 0.000, 16:33:19.474, 1680381199474
79, 581.61, 442.36, 399.58, 0.00, 0.000, 0.000, 0.000, 16:33:19.474, 1680381199474
80, -140.98, -82.82, -80.01, 0.00, 0.000, 0.000, 0.000, 16:33:19.474, 1680381199474
81, -515.61, -265.50, -276.13, 0.00, 0.000, 0.000, 0.000, 16:33:19.475, 1680381199475
82, 328.76, 304.91, 249.80, 0.00, 0.000, 0.000, 0.000, 16:33:19.475, 1680381199475
83, 253.25, 174.62, 156.10, 0.00, 0.000, 0.000, 0.000, 16:33:19.504, 1680381199504
84, -521.25, -283.08, -275.90, 0.00, 0.000, 0.000, 0.000, 16:33:19.504, 1680381199504
85, -42.31, 72.05, 16.08, 0.00, 0.000, 0.000, 0.000, 16:33:19.505, 1680381199505
86, 562.49, 394.39, 364.92, 0.00, 0.000, 0.000, 0.000, 16:33:19.505, 1680381199505
87, -406.26, -237.10, -215.89, 0.00, 0.000, 0.000, 0.000, 16:33:19.533, 1680381199533
88, -354.40, -135.52, -157.52, 0.00, 0.000, 0.000, 0.000, 16:33:19.533, 1680381199533
89, 591.58, 452.15, 412.14, 0.00, 0.000, 0.000, 0.000, 16:33:19.533, 1680381199533
90, -129.14, -66.63, -61.12, 0.00, 0.000, 0.000, 0.000, 16:33:19.533, 1680381199533
91, -505.73, -250.05, -263.99, 0.00, 0.000, 0.000, 0.000, 16:33:19.534, 1680381199534
92, 335.92, 316.18, 247.86, 0.00, 0.000, 0.000, 0.000, 16:33:19.534, 1680381199534
93, 258.13, 178.96, 161.58, 0.00, 0.000, 0.000, 0.000, 16:33:19.535, 1680381199535
94, -512.81, -274.23, -269.64, 0.00, 0.000, 0.000, 0.000, 16:33:19.535, 1680381199535
95, -31.18, 86.53, 25.19, 0.00, 0.000, 0.000, 0.000, 16:33:19.563, 1680381199563
96, 559.11, 401.21, 366.06, 0.00, 0.000, 0.000, 0.000, 16:33:19.563, 1680381199563
97, -407.78, -230.75, -223.47, 0.00, 0.000, 0.000, 0.000, 16:33:19.563, 1680381199563
98, -354.24, -135.27, -166.42, 0.00, 0.000, 0.000, 0.000, 16:33:19.563, 1680381199563
99, 593.59, 458.18, 411.90, 0.00, 0.000, 0.000, 0.000, 16:33:19.593, 1680381199593
100, -124.82, -62.81, -55.08, 0.00, 0.000, 0.000, 0.000, 16:33:19.593, 1680381199593
101, -509.37, -247.84, -251.59, 0.00, 0.000, 0.000, 0.000, 16:33:19.593, 1680381199593
102, 328.87, 315.32, 257.94, 0.00, 0.000, 0.000, 0.000, 16:33:19.593, 1680381199593
103, 262.44, 182.48, 164.10, 0.00, 0.000, 0.000, 0.000, 16:33:19.594, 1680381199594
104, -526.59, -284.11, -283.18, 0.00, 0.000, 0.000, 0.000, 16:33:19.594, 1680381199594
105, -46.22, 80.02, 11.95, 0.00, 0.000, 0.000, 0.000, 16:33:19.595, 1680381199595
106, 562.80, 402.98, 357.08, 0.00, 0.000, 0.000, 0.000, 16:33:19.595, 1680381199595
107, -408.44, -228.02, -228.35, 0.00, 0.000, 0.000, 0.000, 16:33:19.622, 1680381199622
108, -362.44, -136.64, -174.14, 0.00, 0.000, 0.000, 0.000, 16:33:19.622, 1680381199622
109, 584.25, 454.44, 402.14, 0.00, 0.000, 0.000, 0.000, 16:33:19.623, 1680381199623
110, -122.39, -61.38, -57.48, 0.00, 0.000, 0.000, 0.000, 16:33:19.623, 1680381199623
111, -515.16, -252.93, -262.99, 0.00, 0.000, 0.000, 0.000, 16:33:19.653, 1680381199653
112, 318.91, 305.94, 246.76, 0.00, 0.000, 0.000, 0.000, 16:33:19.653, 1680381199653
113, 259.58, 183.68, 165.89, 0.00, 0.000, 0.000, 0.000, 16:33:19.654, 1680381199654
114, -522.10, -281.44, -275.16, 0.00, 0.000, 0.000, 0.000, 16:33:19.654, 1680381199654
115, -48.51, 76.44, 14.05, 0.00, 0.000, 0.000, 0.000, 16:33:19.655, 1680381199655
116, 566.70, 401.55, 363.48, 0.00, 0.000, 0.000, 0.000, 16:33:19.655, 1680381199655
117, -394.74, -224.92, -211.47, 0.00, 0.000, 0.000, 0.000, 16:33:19.655, 1680381199655
118, -357.22, -140.27, -171.38, 0.00, 0.000, 0.000, 0.000, 16:33:19.655, 1680381199655
119, 591.55, 465.36, 408.08, 0.00, 0.000, 0.000, 0.000, 16:33:19.683, 1680381199683
120, -120.34, -66.27, -59.56, 0.00, 0.000, 0.000, 0.000, 16:33:19.683, 1680381199683
121, -512.54, -249.15, -265.04, 0.00, 0.000, 0.000, 0.000, 16:33:19.690, 1680381199690
122, 322.35, 304.94, 246.58, 0.00, 0.000, 0.000, 0.000, 16:33:19.690, 1680381199690
123, 275.23, 189.58, 175.65, 0.00, 0.000, 0.000, 0.000, 16:33:19.713, 1680381199713
124, -509.89, -275.81, -268.42, 0.00, 0.000, 0.000, 0.000, 16:33:19.713, 1680381199713
125, -48.74, 71.51, 16.31, 0.00, 0.000, 0.000, 0.000, 16:33:19.713, 1680381199713
126, 558.31, 402.91, 361.19, 0.00, 0.000, 0.000, 0.000, 16:33:19.713, 1680381199713
127, -402.97, -230.06, -220.58, 0.00, 0.000, 0.000, 0.000, 16:33:19.714, 1680381199714
128, -356.03, -136.13, -172.95, 0.00, 0.000, 0.000, 0.000, 16:33:19.714, 1680381199714
129, 586.63, 455.21, 402.19, 0.00, 0.000, 0.000, 0.000, 16:33:19.715, 1680381199715
130, -107.43, -51.59, -53.97, 0.00, 0.000, 0.000, 0.000, 16:33:19.715, 1680381199715
131, -505.66, -251.80, -261.80, 0.00, 0.000, 0.000, 0.000, 16:33:19.743, 1680381199743
132, 321.40, 305.84, 248.75, 0.00, 0.000, 0.000, 0.000, 16:33:19.743, 1680381199743
133, 271.13, 193.10, 169.88, 0.00, 0.000, 0.000, 0.000, 16:33:19.743, 1680381199743
134, -520.20, -278.48, -274.20, 0.00, 0.000, 0.000, 0.000, 16:33:19.743, 1680381199743
135, -62.64, 66.11, 10.32, 0.00, 0.000, 0.000, 0.000, 16:33:19.773, 1680381199773
136, 565.83, 402.68, 368.98, 0.00, 0.000, 0.000, 0.000, 16:33:19.773, 1680381199773
137, -396.60, -223.88, -222.37, 0.00, 0.000, 0.000, 0.000, 16:33:19.773, 1680381199773
138, -359.76, -138.32, -175.55, 0.00, 0.000, 0.000, 0.000, 16:33:19.773, 1680381199773
139, 587.20, 457.08, 401.39, 0.00, 0.000, 0.000, 0.000, 16:33:19.774, 1680381199774
140, -107.38, -54.51, -62.32, 0.00, 0.000, 0.000, 0.000, 16:33:19.774, 1680381199774
141, -512.34, -256.88, -270.73, 0.00, 0.000, 0.000, 0.000, 16:33:19.775, 1680381199775
142, 302.84, 307.10, 242.26, 0.00, 0.000, 0.000, 0.000, 16:33:19.775, 1680381199775
143, 274.96, 203.44, 172.14, 0.00, 0.000, 0.000, 0.000, 16:33:19.803, 1680381199803
144, -527.88, -282.95, -285.26, 0.00, 0.000, 0.000, 0.000, 16:33:19.803, 1680381199803
145, -80.55, 58.15, -1.68, 0.00, 0.000, 0.000, 0.000, 16:33:19.804, 1680381199804
146, 552.31, 396.77, 354.98, 0.00, 0.000, 0.000, 0.000, 16:33:19.804, 1680381199804
147, -404.50, -229.99, -231.73, 0.00, 0.000, 0.000, 0.000, 16:33:19.832, 1680381199832
148, -380.44, -145.80, -185.98, 0.00, 0.000, 0.000, 0.000, 16:33:19.832, 1680381199832
149, 577.03, 456.23, 401.47, 0.00, 0.000, 0.000, 0.000, 16:33:19.833, 1680381199833
150, -107.38, -47.29, -48.60, 0.00, 0.000, 0.000, 0.000, 16:33:19.833, 1680381199833
151, -507.45, -245.02, -252.63, 0.00, 0.000, 0.000, 0.000, 16:33:19.834, 1680381199834
152, 320.16, 309.17, 243.08, 0.00, 0.000, 0.000, 0.000, 16:33:19.834, 1680381199834
153, 294.43, 204.66, 195.07, 0.00, 0.000, 0.000, 0.000, 16:33:19.835, 1680381199835
154, -504.82, -271.40, -257.01, 0.00, 0.000, 0.000, 0.000, 16:33:19.835, 1680381199835
155, -43.78, 71.27, 25.99, 0.00, 0.000, 0.000, 0.000, 16:33:19.862, 1680381199862
156, 581.80, 417.72, 382.68, 0.00, 0.000, 0.000, 0.000, 16:33:19.862, 1680381199862
157, -381.83, -210.20, -199.49, 0.00, 0.000, 0.000, 0.000, 16:33:19.863, 1680381199863
158, -349.40, -130.99, -169.10, 0.00, 0.000, 0.000, 0.000, 16:33:19.863, 1680381199863
159, 594.30, 467.40, 407.88, 0.00, 0.000, 0.000, 0.000, 16:33:19.893, 1680381199893
160, -87.86, -40.21, -42.16, 0.00, 0.000, 0.000, 0.000, 16:33:19.893, 1680381199893
161, -497.02, -249.42, -252.33, 0.00, 0.000, 0.000, 0.000, 16:33:19.894, 1680381199894
162, 322.88, 310.80, 248.53, 0.00, 0.000, 0.000, 0.000, 16:33:19.894, 1680381199894
163, 292.83, 206.03, 192.70, 0.00, 0.000, 0.000, 0.000, 16:33:19.895, 1680381199895
164, -493.03, -263.21, -255.99, 0.00, 0.000, 0.000, 0.000, 16:33:19.895, 1680381199895
165, -44.81, 77.50, 28.40, 0.00, 0.000, 0.000, 0.000, 16:33:19.895, 1680381199895
166, 600.37, 423.28, 390.03, 0.00, 0.000, 0.000, 0.000, 16:33:19.895, 1680381199895
167, -362.99, -194.77, -202.23, 0.00, 0.000, 0.000, 0.000, 16:33:19.923, 1680381199923
168, -345.88, -109.45, -172.80, 0.00, 0.000, 0.000, 0.000, 16:33:19.923, 1680381199923
169, 582.87, 482.28, 385.92, 0.00, 0.000, 0.000, 0.000, 16:33:19.923, 1680381199923
170, -102.79, -14.46, -67.88, 0.00, 0.000, 0.000, 0.000, 16:33:19.923, 1680381199923
171, -519.90, -241.30, -281.71, 0.00, 0.000, 0.000, 0.000, 16:33:19.953, 1680381199953
172, 281.21, 277.69, 224.65, 0.00, 0.000, 0.000, 0.000, 16:33:19.953, 1680381199953
173, 275.50, 173.25, 180.91, 0.00, 0.000, 0.000, 0.000, 16:33:19.954, 1680381199954
174, -510.24, -292.40, -259.72, 0.00, 0.000, 0.000, 0.000, 16:33:19.954, 1680381199954
175, -44.29, 62.57, 36.04, 0.00, 0.000, 0.000, 0.000, 16:33:19.955, 1680381199955
176, 612.30, 422.92, 401.90, 0.00, 0.000, 0.000, 0.000, 16:33:19.955, 1680381199955
177, -347.78, -204.63, -182.96, 0.00, 0.000, 0.000, 0.000, 16:33:19.956, 1680381199956
178, -330.03, -123.66, -158.30, 0.00, 0.000, 0.000, 0.000, 16:33:19.956, 1680381199956
179, 603.62, 467.77, 411.80, 0.00, 0.000, 0.000, 0.000, 16:33:19.983, 1680381199983
180, -75.93, -28.25, -35.62, 0.00, 0.000, 0.000, 0.000, 16:33:19.983, 1680381199983
181, -491.62, -237.44, -252.89, 0.00, 0.000, 0.000, 0.000, 16:33:19.984, 1680381199984
182, 316.01, 306.05, 240.22, 0.00, 0.000, 0.000, 0.000, 16:33:19.984, 1680381199984
183, 309.78, 219.16, 200.32, 0.00, 0.000, 0.000, 0.000, 16:33:20.013, 1680381200013
184, -492.14, -264.47, -255.83, 0.00, 0.000, 0.000, 0.000, 16:33:20.013, 1680381200013
185, -53.77, 74.26, 14.12, 0.00, 0.000, 0.000, 0.000, 16:33:20.014, 1680381200014
186, 597.36, 428.71, 384.90, 0.00, 0.000, 0.000, 0.000, 16:33:20.014, 1680381200014
187, -366.03, -204.81, -197.66, 0.00, 0.000, 0.000, 0.000, 16:33:20.015, 1680381200015
188, -349.93, -137.59, -178.82, 0.00, 0.000, 0.000, 0.000, 16:33:20.015, 1680381200015
189, 599.75, 462.74, 397.69, 0.00, 0.000, 0.000, 0.000, 16:33:20.016, 1680381200016
190, -65.99, -32.99, -49.82, 0.00, 0.000, 0.000, 0.000, 16:33:20.016, 1680381200016
191, -491.80, -241.22, -270.85, 0.00, 0.000, 0.000, 0.000, 16:33:20.043, 1680381200043
192, 315.50, 305.77, 244.56, 0.00, 0.000, 0.000, 0.000, 16:33:20.043, 1680381200043
193, 311.37, 220.27, 216.98, 0.00, 0.000, 0.000, 0.000, 16:33:20.044, 1680381200044
194, -496.83, -264.01, -228.39, 0.00, 0.000, 0.000, 0.000, 16:33:20.044, 1680381200044
195, -59.23, 70.51, 55.38, 0.00, 0.000, 0.000, 0.000, 16:33:20.073, 1680381200073
196, 584.59, 423.61, 421.94, 0.00, 0.000, 0.000, 0.000, 16:33:20.073, 1680381200073
197, -371.28, -203.48, -191.50, 0.00, 0.000, 0.000, 0.000, 16:33:20.074, 1680381200074
198, -361.74, -136.03, -189.94, 0.00, 0.000, 0.000, 0.000, 16:33:20.074, 1680381200074
199, 596.38, 467.96, 382.71, 0.00, 0.000, 0.000, 0.000, 16:33:20.074, 1680381200074
200, -68.45, -25.71, -73.21, 0.00, 0.000, 0.000, 0.000, 16:33:20.074, 1680381200074
0, -501.59, -240.38, -295.51, 0.00, 0.000, 0.000, 0.000, 16:33:20.082, 1680381200082
1, 307.68, 304.64, 223.74, 0.00, 0.000, 0.000, 0.000, 16:33:20.103, 1680381200103
2, 318.15, 223.09, 207.37, 0.00, 0.000, 0.000, 0.000, 16:33:20.103, 1680381200103
3, -487.06, -258.98, -250.56, 0.00, 0.000, 0.000, 0.000, 16:33:20.104, 1680381200104
4, -57.30, 68.60, 37.75, 0.00, 0.000, 0.000, 0.000, 16:33:20.104, 1680381200104
5, 599.66, 433.69, 408.69, 0.00, 0.000, 0.000, 0.000, 16:33:20.105, 1680381200105
6, -364.77, -202.30, -188.35, 0.00, 0.000, 0.000, 0.000, 16:33:20.105, 1680381200105
7, -366.18, -141.21, -170.71, 0.00, 0.000, 0.000, 0.000, 16:33:20.133, 1680381200133
8, 582.97, 457.72, 404.73, 0.00, 0.000, 0.000, 0.000, 16:33:20.133, 1680381200133
9, -71.47, -27.73, -41.61, 0.00, 0.000, 0.000, 0.000, 16:33:20.133, 1680381200133
10, -499.65, -238.36, -268.85, 0.00, 0.000, 0.000, 0.000, 16:33:20.133, 1680381200133
11, 295.90, 306.80, 222.10, 0.00, 0.000, 0.000, 0.000, 16:33:20.134, 1680381200134
12, 306.70, 219.89, 185.12, 0.00, 0.000, 0.000, 0.000, 16:33:20.134, 1680381200134
13, -501.74, -265.93, -272.51, 0.00, 0.000, 0.000, 0.000, 16:33:20.164, 1680381200164
14, -73.82, 62.83, -2.59, 0.00, 0.000, 0.000, 0.000, 16:33:20.164, 1680381200164
15, 582.13, 422.24, 385.43, 0.00, 0.000, 0.000, 0.000, 16:33:20.164, 1680381200164
16, -368.54, -198.65, -190.73, 0.00, 0.000, 0.000, 0.000, 16:33:20.164, 1680381200164
17, -364.51, -138.79, -168.73, 0.00, 0.000, 0.000, 0.000, 16:33:20.165, 1680381200165
18, 586.46, 464.77, 411.18, 0.00, 0.000, 0.000, 0.000, 16:33:20.165, 1680381200165
19, -65.71, -23.91, -30.40, 0.00, 0.000, 0.000, 0.000, 16:33:20.193, 1680381200193
20, -500.22, -245.17, -262.50, 0.00, 0.000, 0.000, 0.000, 16:33:20.193, 1680381200193
21, 302.94, 299.65, 227.84, 0.00, 0.000, 0.000, 0.000, 16:33:20.193, 1680381200193
22, 318.02, 220.53, 191.11, 0.00, 0.000, 0.000, 0.000, 16:33:20.193, 1680381200193
23, -495.27, -268.32, -267.95, 0.00, 0.000, 0.000, 0.000, 16:33:20.194, 1680381200194
24, -72.65, 59.82, -4.11, 0.00, 0.000, 0.000, 0.000, 16:33:20.194, 1680381200194
25, 592.00, 423.94, 387.65, 0.00, 0.000, 0.000, 0.000, 16:33:20.223, 1680381200223
26, -362.83, -206.17, -198.61, 0.00, 0.000, 0.000, 0.000, 16:33:20.223, 1680381200223
27, -369.26, -143.87, -170.23, 0.00, 0.000, 0.000, 0.000, 16:33:20.224, 1680381200224
28, 580.92, 457.74, 417.56, 0.00, 0.000, 0.000, 0.000, 16:33:20.224, 1680381200224
29, -64.95, -24.03, -21.82, 0.00, 0.000, 0.000, 0.000, 16:33:20.224, 1680381200224
30, -512.61, -254.04, -253.80, 0.00, 0.000, 0.000, 0.000, 16:33:20.224, 1680381200224
31, 276.06, 279.32, 230.12, 0.00, 0.000, 0.000, 0.000, 16:33:20.253, 1680381200253
32, 299.11, 211.29, 190.16, 0.00, 0.000, 0.000, 0.000, 16:33:20.253, 1680381200253
33, -514.84, -276.71, -272.38, 0.00, 0.000, 0.000, 0.000, 16:33:20.253, 1680381200253
34, -96.67, 40.67, -11.59, 0.00, 0.000, 0.000, 0.000, 16:33:20.253, 1680381200253
35, 578.17, 420.13, 378.74, 0.00, 0.000, 0.000, 0.000, 16:33:20.254, 1680381200254
36, -365.64, -202.96, -196.73, 0.00, 0.000, 0.000, 0.000, 16:33:20.254, 1680381200254
37, -369.16, -143.87, -179.97, 0.00, 0.000, 0.000, 0.000, 16:33:20.282, 1680381200282
38, 580.69, 456.71, 392.72, 0.00, 0.000, 0.000, 0.000, 16:33:20.282, 1680381200282
39, -56.50, -23.37, -29.22, 0.00, 0.000, 0.000, 0.000, 16:33:20.283, 1680381200283
40, -501.77, -255.16, -260.58, 0.00, 0.000, 0.000, 0.000, 16:33:20.283, 1680381200283
41, 291.83, 291.68, 235.85, 0.00, 0.000, 0.000, 0.000, 16:33:20.284, 1680381200284
42, 325.72, 228.36, 222.17, 0.00, 0.000, 0.000, 0.000, 16:33:20.284, 1680381200284
43, -496.63, -269.17, -244.23, 0.00, 0.000, 0.000, 0.000, 16:33:20.312, 1680381200312
44, -86.74, 52.16, 9.52, 0.00, 0.000, 0.000, 0.000, 16:33:20.312, 1680381200312
45, 588.63, 429.36, 390.00, 0.00, 0.000, 0.000, 0.000, 16:33:20.313, 1680381200313
46, -363.14, -200.65, -203.67, 0.00, 0.000, 0.000, 0.000, 16:33:20.313, 1680381200313
47, -382.09, -152.35, -194.96, 0.00, 0.000, 0.000, 0.000, 16:33:20.314, 1680381200314
48, 558.22, 444.75, 379.65, 0.00, 0.000, 0.000, 0.000, 16:33:20.314, 1680381200314
49, -71.02, -34.06, -41.23, 0.00, 0.000, 0.000, 0.000, 16:33:20.343, 1680381200343
50, -508.53, -256.80, -268.46, 0.00, 0.000, 0.000, 0.000, 16:33:20.343, 1680381200343
51, 279.23, 283.70, 216.07, 0.00, 0.000, 0.000, 0.000, 16:33:20.343, 1680381200343
52, 313.16, 216.85, 196.42, 0.00, 0.000, 0.000, 0.000, 16:33:20.343, 1680381200343
53, -507.85, -276.73, -273.73, 0.00, 0.000, 0.000, 0.000, 16:33:20.344, 1680381200344
54, -95.48, 40.65, -6.49, 0.00, 0.000, 0.000, 0.000, 16:33:20.344, 1680381200344
55, 588.43, 415.67, 391.34, 0.00, 0.000, 0.000, 0.000, 16:33:20.373, 1680381200373
56, -368.04, -211.16, -199.50, 0.00, 0.000, 0.000, 0.000, 16:33:20.373, 1680381200373
57, -386.92, -160.15, -187.37, 0.00, 0.000, 0.000, 0.000, 16:33:20.374, 1680381200374
58, 562.07, 443.36, 388.00, 0.00, 0.000, 0.000, 0.000, 16:33:20.374, 1680381200374
59, -65.65, -28.78, -33.89, 0.00, 0.000, 0.000, 0.000, 16:33:20.374, 1680381200374
60, -523.22, -267.30, -284.34, 0.00, 0.000, 0.000, 0.000, 16:33:20.374, 1680381200374
61, 260.27, 268.85, 196.29, 0.00, 0.000, 0.000, 0.000, 16:33:20.403, 1680381200403
62, 306.72, 207.47, 188.98, 0.00, 0.000, 0.000, 0.000, 16:33:20.403, 1680381200403
63, -517.72, -280.64, -278.15, 0.00, 0.000, 0.000, 0.000, 16:33:20.404, 1680381200404
64, -110.14, 36.92, -15.16, 0.00, 0.000, 0.000, 0.000, 16:33:20.404, 1680381200404
65, 580.13, 415.94, 384.22, 0.00, 0.000, 0.000, 0.000, 16:33:20.405, 1680381200405
66, -372.87, -213.56, -201.85, 0.00, 0.000, 0.000, 0.000, 16:33:20.405, 1680381200405
67, -383.24, -159.80, -195.74, 0.00, 0.000, 0.000, 0.000, 16:33:20.433, 1680381200433
68, 566.57, 436.73, 392.39, 0.00, 0.000, 0.000, 0.000, 16:33:20.433, 1680381200433
69, -64.21, -31.05, -34.79, 0.00, 0.000, 0.000, 0.000, 16:33:20.434, 1680381200434
70, -514.57, -262.72, -280.26, 0.00, 0.000, 0.000, 0.000, 16:33:20.434, 1680381200434
71, 268.29, 272.91, 205.07, 0.00, 0.000, 0.000, 0.000, 16:33:20.434, 1680381200434
72, 317.92, 216.85, 198.66, 0.00, 0.000, 0.000, 0.000, 16:33:20.434, 1680381200434
73, -511.38, -284.11, -274.93, 0.00, 0.000, 0.000, 0.000, 16:33:20.463, 1680381200463
74, -101.56, 30.76, -14.36, 0.00, 0.000, 0.000, 0.000, 16:33:20.463, 1680381200463
75, 584.69, 416.96, 383.36, 0.00, 0.000, 0.000, 0.000, 16:33:20.464, 1680381200464
76, -370.16, -212.55, -206.80, 0.00, 0.000, 0.000, 0.000, 16:33:20.464, 1680381200464
77, -397.44, -170.92, -199.09, 0.00, 0.000, 0.000, 0.000, 16:33:20.464, 1680381200464
78, 550.02, 433.18, 381.11, 0.00, 0.000, 0.000, 0.000, 16:33:20.464, 1680381200464
79, -64.79, -37.83, -36.05, 0.00, 0.000, 0.000, 0.000, 16:33:20.492, 1680381200492
80, -536.43, -275.63, -289.95, 0.00, 0.000, 0.000, 0.000, 16:33:20.492, 1680381200492
81, 240.47, 254.89, 193.39, 0.00, 0.000, 0.000, 0.000, 16:33:20.493, 1680381200493
82, 294.45, 207.33, 184.10, 0.00, 0.000, 0.000, 0.000, 16:33:20.493, 1680381200493
83, -537.95, -295.11, -290.53, 0.00, 0.000, 0.000, 0.000, 16:33:20.494, 1680381200494
84, -133.80, 14.71, -34.80, 0.00, 0.000, 0.000, 0.000, 16:33:20.494, 1680381200494
85, 561.60, 406.52, 367.27, 0.00, 0.000, 0.000, 0.000, 16:33:20.523, 1680381200523
86, -383.12, -218.31, -216.37, 0.00, 0.000, 0.000, 0.000, 16:33:20.523, 1680381200523
87, -410.64, -172.02, -202.22, 0.00, 0.000, 0.000, 0.000, 16:33:20.524, 1680381200524
88, 539.74, 428.88, 372.21, 0.00, 0.000, 0.000, 0.000, 16:33:20.524, 1680381200524
89, -67.85, -34.45, -32.65, 0.00, 0.000, 0.000, 0.000, 16:33:20.524, 1680381200524
90, -531.07, -271.52, -279.60, 0.00, 0.000, 0.000, 0.000, 16:33:20.524, 1680381200524
91, 250.87, 263.35, 200.71, 0.00, 0.000, 0.000, 0.000, 16:33:20.554, 1680381200554
92, 306.70, 216.51, 194.88, 0.00, 0.000, 0.000, 0.000, 16:33:20.554, 1680381200554
93, -518.74, -286.61, -275.40, 0.00, 0.000, 0.000, 0.000, 16:33:20.555, 1680381200555
94, -117.29, 22.53, -30.31, 0.00, 0.000, 0.000, 0.000, 16:33:20.555, 1680381200555
95, 575.64, 418.59, 384.58, 0.00, 0.000, 0.000, 0.000, 16:33:20.556, 1680381200556
96, -370.73, -209.71, -207.64, 0.00, 0.000, 0.000, 0.000, 16:33:20.556, 1680381200556
97, -403.69, -170.42, -203.90, 0.00, 0.000, 0.000, 0.000, 16:33:20.583, 1680381200583
98, 544.87, 436.75, 379.30, 0.00, 0.000, 0.000, 0.000, 16:33:20.583, 1680381200583
99, -65.93, -33.86, -34.58, 0.00, 0.000, 0.000, 0.000, 16:33:20.583, 1680381200583
100, -526.87, -267.64, -276.79, 0.00, 0.000, 0.000, 0.000, 16:33:20.583, 1680381200583
101, 241.70, 262.60, 201.75, 0.00, 0.000, 0.000, 0.000, 16:33:20.590, 1680381200590
102, 315.32, 221.06, 199.93, 0.00, 0.000, 0.000, 0.000, 16:33:20.590, 1680381200590
103, -519.44, -279.26, -278.08, 0.00, 0.000, 0.000, 0.000, 16:33:20.613, 1680381200613
104, -124.22, 26.39, -21.38, 0.00, 0.000, 0.000, 0.000, 16:33:20.613, 1680381200613
105, 580.77, 425.33, 381.24, 0.00, 0.000, 0.000, 0.000, 16:33:20.613, 1680381200613
106, -362.97, -200.81, -199.78, 0.00, 0.000, 0.000, 0.000, 16:33:20.613, 1680381200613
107, -401.55, -163.10, -201.62, 0.00, 0.000, 0.000, 0.000, 16:33:20.614, 1680381200614
108, 554.08, 441.25, 389.32, 0.00, 0.000, 0.000, 0.000, 16:33:20.614, 1680381200614
109, -41.34, -22.32, -13.25, 0.00, 0.000, 0.000, 0.000, 16:33:20.643, 1680381200643
110, -509.14, -263.14, -263.88, 0.00, 0.000, 0.000, 0.000, 16:33:20.643, 1680381200643
111, 256.75, 260.82, 203.37, 0.00, 0.000, 0.000, 0.000, 16:33:20.644, 1680381200644
112, 330.64, 228.64, 209.02, 0.00, 0.000, 0.000, 0.000, 16:33:20.644, 1680381200644
113, -507.14, -275.09, -268.39, 0.00, 0.000, 0.000, 0.000, 16:33:20.644, 1680381200644
114, -110.41, 31.02, -21.03, 0.00, 0.000, 0.000, 0.000, 16:33:20.644, 1680381200644
115, 593.96, 424.68, 393.19, 0.00, 0.000, 0.000, 0.000, 16:33:20.673, 1680381200673
116, -356.73, -206.06, -193.20, 0.00, 0.000, 0.000, 0.000, 16:33:20.673, 1680381200673
117, -398.93, -165.77, -197.19, 0.00, 0.000, 0.000, 0.000, 16:33:20.673, 1680381200673
118, 557.25, 441.56, 390.88, 0.00, 0.000, 0.000, 0.000, 16:33:20.673, 1680381200673
119, -42.31, -19.33, -18.23, 0.00, 0.000, 0.000, 0.000, 16:33:20.674, 1680381200674
120, -506.72, -259.30, -261.49, 0.00, 0.000, 0.000, 0.000, 16:33:20.674, 1680381200674
121, 264.11, 270.75, 215.09, 0.00, 0.000, 0.000, 0.000, 16:33:20.703, 1680381200703
122, 350.87, 244.78, 227.80, 0.00, 0.000, 0.000, 0.000, 16:33:20.703, 1680381200703
123, -491.54, -260.16, -258.46, 0.00, 0.000, 0.000, 0.000, 16:33:20.703, 1680381200703
124, -105.86, 42.83, -24.00, 0.00, 0.000, 0.000, 0.000, 16:33:20.703, 1680381200703
125, 599.16, 455.33, 383.81, 0.00, 0.000, 0.000, 0.000, 16:33:20.704, 1680381200704
126, -358.85, -170.97, -210.37, 0.00, 0.000, 0.000, 0.000, 16:33:20.704, 1680381200704
127, -408.25, -145.80, -216.63, 0.00, 0.000, 0.000, 0.000, 16:33:20.733, 1680381200733
128, 518.18, 415.12, 362.95, 0.00, 0.000, 0.000, 0.000, 16:33:20.733, 1680381200733
129, -63.95, -45.72, -24.01, 0.00, 0.000, 0.000, 0.000, 16:33:20.733, 1680381200733
130, -523.16, -289.03, -264.68, 0.00, 0.000, 0.000, 0.000, 16:33:20.733, 1680381200733
131, 250.49, 243.05, 207.91, 0.00, 0.000, 0.000, 0.000, 16:33:20.734, 1680381200734
132, 363.77, 235.06, 239.97, 0.00, 0.000, 0.000, 0.000, 16:33:20.734, 1680381200734
133, -480.18, -269.01, -244.11, 0.00, 0.000, 0.000, 0.000, 16:33:20.762, 1680381200762
134, -94.20, 31.87, -10.75, 0.00, 0.000, 0.000, 0.000, 16:33:20.762, 1680381200762
135, 609.39, 438.87, 399.75, 0.00, 0.000, 0.000, 0.000, 16:33:20.763, 1680381200763
136, -342.73, -193.87, -189.37, 0.00, 0.000, 0.000, 0.000, 16:33:20.763, 1680381200763
137, -392.49, -168.63, -203.24, 0.00, 0.000, 0.000, 0.000, 16:33:20.764, 1680381200764
138, 554.83, 443.68, 380.31, 0.00, 0.000, 0.000, 0.000, 16:33:20.764, 1680381200764
139, -34.22, -8.00, -16.30, 0.00, 0.000, 0.000, 0.000, 16:33:20.793, 1680381200793
140, -516.66, -258.98, -265.76, 0.00, 0.000, 0.000, 0.000, 16:33:20.793, 1680381200793
141, 246.23, 260.02, 201.14, 0.00, 0.000, 0.000, 0.000, 16:33:20.793, 1680381200793
142, 344.10, 242.54, 218.64, 0.00, 0.000, 0.000, 0.000, 16:33:20.793, 1680381200793
143, -504.68, -271.15, -268.21, 0.00, 0.000, 0.000, 0.000, 16:33:20.794, 1680381200794
144, -128.04, 20.61, -29.07, 0.00, 0.000, 0.000, 0.000, 16:33:20.794, 1680381200794
145, 587.84, 422.78, 378.34, 0.00, 0.000, 0.000, 0.000, 16:33:20.823, 1680381200823
146, -353.08, -200.80, -208.28, 0.00, 0.000, 0.000, 0.000, 16:33:20.823, 1680381200823
147, -403.61, -170.56, -218.79, 0.00, 0.000, 0.000, 0.000, 16:33:20.824, 1680381200824
148, 545.66, 433.81, 376.44, 0.00, 0.000, 0.000, 0.000, 16:33:20.824, 1680381200824
149, -31.51, -8.93, -4.75, 0.00, 0.000, 0.000, 0.000, 16:33:20.824, 1680381200824
150, -512.90, -257.18, -242.05, 0.00, 0.000, 0.000, 0.000, 16:33:20.824, 1680381200824
151, 245.21, 265.08, 230.96, 0.00, 0.000, 0.000, 0.000, 16:33:20.854, 1680381200854
152, 348.04, 247.44, 259.41, 0.00, 0.000, 0.000, 0.000, 16:33:20.854, 1680381200854
153, -499.66, -265.12, -240.82, 0.00, 0.000, 0.000, 0.000, 16:33:20.854, 1680381200854
154, -125.43, 21.58, -31.56, 0.00, 0.000, 0.000, 0.000, 16:33:20.854, 1680381200854
155, 599.32, 437.99, 371.34, 0.00, 0.000, 0.000, 0.000, 16:33:20.855, 1680381200855
156, -342.30, -192.07, -224.20, 0.00, 0.000, 0.000, 0.000, 16:33:20.855, 1680381200855
157, -400.78, -168.91, -233.77, 0.00, 0.000, 0.000, 0.000, 16:33:20.883, 1680381200883
158, 551.32, 438.00, 359.39, 0.00, 0.000, 0.000, 0.000, 16:33:20.883, 1680381200883
159, -19.99, 2.84, -15.41, 0.00, 0.000, 0.000, 0.000, 16:33:20.883, 1680381200883
160, -508.34, -254.78, -257.08, 0.00, 0.000, 0.000, 0.000, 16:33:20.883, 1680381200883
161, 245.66, 266.74, 212.04, 0.00, 0.000, 0.000, 0.000, 16:33:20.884, 1680381200884
162, 358.12, 253.41, 242.63, 0.00, 0.000, 0.000, 0.000, 16:33:20.884, 1680381200884
163, -496.12, -263.51, -248.53, 0.00, 0.000, 0.000, 0.000, 16:33:20.913, 1680381200913
164, -124.19, 25.64, -15.68, 0.00, 0.000, 0.000, 0.000, 16:33:20.913, 1680381200913
165, 602.92, 440.66, 403.76, 0.00, 0.000, 0.000, 0.000, 16:33:20.914, 1680381200914
166, -333.80, -188.60, -186.25, 0.00, 0.000, 0.000, 0.000, 16:33:20.914, 1680381200914
167, -395.56, -157.69, -203.94, 0.00, 0.000, 0.000, 0.000, 16:33:20.921, 1680381200921
168, 552.73, 449.24, 377.96, 0.00, 0.000, 0.000, 0.000, 16:33:20.921, 1680381200921
169, -14.87, 11.34, -7.48, 0.00, 0.000, 0.000, 0.000, 16:33:20.943, 1680381200943
170, -512.82, -252.33, -274.32, 0.00, 0.000, 0.000, 0.000, 16:33:20.943, 1680381200943
171, 247.87, 267.75, 198.46, 0.00, 0.000, 0.000, 0.000, 16:33:20.944, 1680381200944
172, 372.93, 266.06, 237.67, 0.00, 0.000, 0.000, 0.000, 16:33:20.944, 1680381200944
173, -484.85, -257.67, -250.11, 0.00, 0.000, 0.000, 0.000, 16:33:20.944, 1680381200944
174, -119.79, 28.89, -18.27, 0.00, 0.000, 0.000, 0.000, 16:33:20.944, 1680381200944
175, 615.64, 447.67, 410.48, 0.00, 0.000, 0.000, 0.000, 16:33:20.973, 1680381200973
176, -326.25, -179.24, -176.24, 0.00, 0.000, 0.000, 0.000, 16:33:20.973, 1680381200973
177, -398.14, -165.67, -201.77, 0.00, 0.000, 0.000, 0.000, 16:33:20.973, 1680381200973
178, 543.72, 435.57, 367.90, 0.00, 0.000, 0.000, 0.000, 16:33:20.973, 1680381200973
179, -18.69, -0.47, -11.76, 0.00, 0.000, 0.000, 0.000, 16:33:20.974, 1680381200974
180, -517.93, -257.71, -276.55, 0.00, 0.000, 0.000, 0.000, 16:33:20.974, 1680381200974
181, 235.16, 258.79, 193.11, 0.00, 0.000, 0.000, 0.000, 16:33:21.002, 1680381201002
182, 359.31, 260.62, 240.57, 0.00, 0.000, 0.000, 0.000, 16:33:21.002, 1680381201002
183, -490.07, -262.80, -249.31, 0.00, 0.000, 0.000, 0.000, 16:33:21.003, 1680381201003
184, -130.65, 22.26, -27.16, 0.00, 0.000, 0.000, 0.000, 16:33:21.003, 1680381201003
185, 603.65, 443.36, 413.45, 0.00, 0.000, 0.000, 0.000, 16:33:21.004, 1680381201004
186, -336.77, -191.10, -167.37, 0.00, 0.000, 0.000, 0.000, 16:33:21.004, 1680381201004
187, -400.24, -170.68, -194.72, 0.00, 0.000, 0.000, 0.000, 16:33:21.033, 1680381201033
188, 540.31, 436.97, 379.01, 0.00, 0.000, 0.000, 0.000, 16:33:21.033, 1680381201033
189, -17.88, -0.94, -5.68, 0.00, 0.000, 0.000, 0.000, 16:33:21.033, 1680381201033
190, -523.23, -267.71, -277.84, 0.00, 0.000, 0.000, 0.000, 16:33:21.033, 1680381201033
191, 228.98, 251.11, 189.66, 0.00, 0.000, 0.000, 0.000, 16:33:21.034, 1680381201034
192, 363.34, 247.36, 231.75, 0.00, 0.000, 0.000, 0.000, 16:33:21.034, 1680381201034
193, -500.24, -277.12, -269.10, 0.00, 0.000, 0.000, 0.000, 16:33:21.063, 1680381201063
194, -143.99, 11.97, -51.61, 0.00, 0.000, 0.000, 0.000, 16:33:21.063, 1680381201063
195, 605.55, 442.16, 392.96, 0.00, 0.000, 0.000, 0.000, 16:33:21.063, 1680381201063
196, -329.88, -183.77, -187.29, 0.00, 0.000, 0.000, 0.000, 16:33:21.063, 1680381201063
197, -404.16, -175.80, -203.59, 0.00, 0.000, 0.000, 0.000, 16:33:21.064, 1680381201064
198, 550.50, 436.79, 381.86, 0.00, 0.000, 0.000, 0.000, 16:33:21.064, 1680381201064
199, 2.61, 14.10, 19.38, 0.00, 0.000, 0.000, 0.000, 16:33:21.093, 1680381201093
200, -507.87, -259.49, -251.29, 0.00, 0.000, 0.000, 0.000, 16:33:21.093, 1680381201093
0, 235.50, 255.71, 206.22, 0.00, 0.000, 0.000, 0.000, 16:33:21.093, 1680381201093
1, 371.60, 258.17, 239.86, 0.00, 0.000, 0.000, 0.000, 16:33:21.094, 1680381201094
2, -495.30, -258.92, -260.06, 0.00, 0.000, 0.000, 0.000, 16:33:21.094, 1680381201094
3, -138.65, 18.36, -42.00, 0.00, 0.000, 0.000, 0.000, 16:33:21.095, 1680381201095
4, 606.11, 439.12, 390.28, 0.00, 0.000, 0.000, 0.000, 16:33:21.095, 1680381201095
5, -327.41, -185.69, -188.09, 0.00, 0.000, 0.000, 0.000, 16:33:21.123, 1680381201123
6, -400.94, -173.89, -211.66, 0.00, 0.000, 0.000, 0.000, 16:33:21.123, 1680381201123
7, 534.68, 429.31, 372.32, 0.00, 0.000, 0.000, 0.000, 16:33:21.124, 1680381201124
8, -11.05, 8.12, -4.89, 0.00, 0.000, 0.000, 0.000, 16:33:21.124, 1680381201124
9, -518.77, -263.22, -270.93, 0.00, 0.000, 0.000, 0.000, 16:33:21.153, 1680381201153
10, 221.06, 243.19, 190.16, 0.00, 0.000, 0.000, 0.000, 16:33:21.153, 1680381201153
11, 373.25, 259.96, 248.37, 0.00, 0.000, 0.000, 0.000, 16:33:21.153, 1680381201153
12, -489.63, -270.99, -256.91, 0.00, 0.000, 0.000, 0.000, 16:33:21.153, 1680381201153
13, -143.23, 8.23, -44.73, 0.00, 0.000, 0.000, 0.000, 16:33:21.154, 1680381201154
14, 607.31, 443.20, 395.06, 0.00, 0.000, 0.000, 0.000, 16:33:21.154, 1680381201154
15, -327.73, -187.16, -191.68, 0.00, 0.000, 0.000, 0.000, 16:33:21.155, 1680381201155
16, -404.87, -175.36, -212.28, 0.00, 0.000, 0.000, 0.000, 16:33:21.155, 1680381201155
17, 540.47, 433.42, 368.64, 0.00, 0.000, 0.000, 0.000, 16:33:21.183, 1680381201183
18, 1.24, 11.89, -0.90, 0.00, 0.000, 0.000, 0.000, 16:33:21.183, 1680381201183
19, -514.46, -262.56, -270.76, 0.00, 0.000, 0.000, 0.000, 16:33:21.183, 1680381201183
20, 214.97, 246.76, 187.87, 0.00, 0.000, 0.000, 0.000, 16:33:21.183, 1680381201183
21, 366.41, 258.58, 239.77, 0.00, 0.000, 0.000, 0.000, 16:33:21.212, 1680381201212
22, -495.42, -266.14, -260.11, 0.00, 0.000, 0.000, 0.000, 16:33:21.212, 1680381201212
23, -148.99, 4.19, -50.36, 0.00, 0.000, 0.000, 0.000, 16:33:21.213, 1680381201213
24, 597.84, 431.08, 390.16, 0.00, 0.000, 0.000, 0.000, 16:33:21.213, 1680381201213
25, -324.27, -190.95, -187.70, 0.00, 0.000, 0.000, 0.000, 16:33:21.214, 1680381201214
26, -409.23, -180.86, -210.85, 0.00, 0.000, 0.000, 0.000, 16:33:21.214, 1680381201214
27, 533.01, 427.19, 365.77, 0.00, 0.000, 0.000, 0.000, 16:33:21.215, 1680381201215
28, 2.35, 16.38, 4.88, 0.00, 0.000, 0.000, 0.000, 16:33:21.215, 1680381201215
29, -514.62, -262.02, -273.39, 0.00, 0.000, 0.000, 0.000, 16:33:21.243, 1680381201243
30, 220.59, 244.21, 184.49, 0.00, 0.000, 0.000, 0.000, 16:33:21.243, 1680381201243
31, 380.41, 263.85, 244.88, 0.00, 0.000, 0.000, 0.000, 16:33:21.244, 1680381201244
32, -488.24, -269.67, -259.82, 0.00, 0.000, 0.000, 0.000, 16:33:21.244, 1680381201244
33, -153.89, -0.59, -49.13, 0.00, 0.000, 0.000, 0.000, 16:33:21.273, 1680381201273
34, 591.38, 420.21, 382.68, 0.00, 0.000, 0.000, 0.000, 16:33:21.273, 1680381201273
35, -342.73, -189.45, -190.87, 0.00, 0.000, 0.000, 0.000, 16:33:21.273, 1680381201273
36, -438.45, -188.78, -223.57, 0.00, 0.000, 0.000, 0.000, 16:33:21.273, 1680381201273
37, 510.72, 426.60, 361.78, 0.00, 0.000, 0.000, 0.000, 16:33:21.274, 1680381201274
38, -8.20, 12.77, 7.23, 0.00, 0.000, 0.000, 0.000, 16:33:21.274, 1680381201274
39, -530.80, -269.91, -276.97, 0.00, 0.000, 0.000, 0.000, 16:33:21.276, 1680381201276
40, 199.46, 237.72, 178.37, 0.00, 0.000, 0.000, 0.000, 16:33:21.276, 1680381201276
41, 376.75, 260.83, 236.42, 0.00, 0.000, 0.000, 0.000, 16:33:21.303, 1680381201303
42, -501.03, -275.20, -270.51, 0.00, 0.000, 0.000, 0.000, 16:33:21.303, 1680381201303
43, -161.14, 0.88, -59.31, 0.00, 0.000, 0.000, 0.000, 16:33:21.304, 1680381201304
44, 604.14, 443.11, 394.38, 0.00, 0.000, 0.000, 0.000, 16:33:21.304, 1680381201304
45, -319.13, -185.66, -177.19, 0.00, 0.000, 0.000, 0.000, 16:33:21.332, 1680381201332
46, -416.63, -182.71, -216.81, 0.00, 0.000, 0.000, 0.000, 16:33:21.332, 1680381201332
47, 526.05, 431.47, 365.84, 0.00, 0.000, 0.000, 0.000, 16:33:21.333, 1680381201333
48, 9.95, 19.85, 17.05, 0.00, 0.000, 0.000, 0.000, 16:33:21.333, 1680381201333
49, -515.13, -262.06, -265.99, 0.00, 0.000, 0.000, 0.000, 16:33:21.334, 1680381201334
50, 195.46, 235.78, 176.39, 0.00, 0.000, 0.000, 0.000, 16:33:21.334, 1680381201334
51, 380.32, 268.45, 242.60, 0.00, 0.000, 0.000, 0.000, 16:33:21.335, 1680381201335
52, -497.47, -264.51, -268.35, 0.00, 0.000, 0.000, 0.000, 16:33:21.335, 1680381201335
53, -161.91, -0.12, -50.27, 0.00, 0.000, 0.000, 0.000, 16:33:21.363, 1680381201363
54, 606.92, 447.77, 403.45, 0.00, 0.000, 0.000, 0.000, 16:33:21.363, 1680381201363
55, -311.60, -171.78, -169.69, 0.00, 0.000, 0.000, 0.000, 16:33:21.369, 1680381201369
56, -420.86, -174.13, -211.12, 0.00, 0.000, 0.000, 0.000, 16:33:21.369, 1680381201369
57, 523.26, 429.37, 362.77, 0.00, 0.000, 0.000, 0.000, 16:33:21.393, 1680381201393
58, 12.20, 22.08, 11.59, 0.00, 0.000, 0.000, 0.000, 16:33:21.393, 1680381201393
59, -515.97, -262.97, -269.59, 0.00, 0.000, 0.000, 0.000, 16:33:21.393, 1680381201393
60, 203.99, 241.56, 173.22, 0.00, 0.000, 0.000, 0.000, 16:33:21.393, 1680381201393
61, 390.67, 271.90, 246.63, 0.00, 0.000, 0.000, 0.000, 16:33:21.394, 1680381201394
62, -492.64, -265.47, -262.33, 0.00, 0.000, 0.000, 0.000, 16:33:21.394, 1680381201394
63, -161.62, -1.26, -51.82, 0.00, 0.000, 0.000, 0.000, 16:33:21.395, 1680381201395
64, 613.52, 446.89, 402.64, 0.00, 0.000, 0.000, 0.000, 16:33:21.395, 1680381201395
65, -309.88, -173.48, -167.16, 0.00, 0.000, 0.000, 0.000, 16:33:21.424, 1680381201424
66, -416.10, -182.47, -204.28, 0.00, 0.000, 0.000, 0.000, 16:33:21.424, 1680381201424
67, 532.81, 423.09, 373.60, 0.00, 0.000, 0.000, 0.000, 16:33:21.424, 1680381201424
68, 22.33, 19.70, 19.66, 0.00, 0.000, 0.000, 0.000, 16:33:21.424, 1680381201424
69, -512.78, -263.89, -264.35, 0.00, 0.000, 0.000, 0.000, 16:33:21.454, 1680381201454
70, 201.35, 230.79, 172.17, 0.00, 0.000, 0.000, 0.000, 16:33:21.454, 1680381201454
71, 399.04, 268.73, 255.73, 0.00, 0.000, 0.000, 0.000, 16:33:21.454, 1680381201454
72, -478.67, -262.61, -256.88, 0.00, 0.000, 0.000, 0.000, 16:33:21.454, 1680381201454
73, -157.51, -0.70, -51.38, 0.00, 0.000, 0.000, 0.000, 16:33:21.455, 1680381201455
74, 616.02, 450.12, 408.82, 0.00, 0.000, 0.000, 0.000, 16:33:21.455, 1680381201455
75, -303.34, -176.85, -169.66, 0.00, 0.000, 0.000, 0.000, 16:33:21.456, 1680381201456
76, -402.06, -176.19, -197.40, 0.00, 0.000, 0.000, 0.000, 16:33:21.456, 1680381201456
77, 533.53, 424.88, 381.46, 0.00, 0.000, 0.000, 0.000, 16:33:21.483, 1680381201483
78, 37.68, 40.49, 29.95, 0.00, 0.000, 0.000, 0.000, 16:33:21.483, 1680381201483
79, -506.46, -246.03, -271.98, 0.00, 0.000, 0.000, 0.000, 16:33:21.483, 1680381201483
80, 191.41, 246.18, 157.14, 0.00, 0.000, 0.000, 0.000, 16:33:21.483, 1680381201483
81, 376.14, 291.43, 229.19, 0.00, 0.000, 0.000, 0.000, 16:33:21.512, 1680381201512
82, -511.00, -255.37, -285.14, 0.00, 0.000, 0.000, 0.000, 16:33:21.512, 1680381201512
83, -199.63, -33.37, -78.70, 0.00, 0.000, 0.000, 0.000, 16:33:21.513, 1680381201513
84, 580.46, 410.00, 389.55, 0.00, 0.000, 0.000, 0.000, 16:33:21.513, 1680381201513
85, -325.78, -205.63, -179.24, 0.00, 0.000, 0.000, 0.000, 16:33:21.514, 1680381201514
86, -425.77, -202.61, -211.04, 0.00, 0.000, 0.000, 0.000, 16:33:21.514, 1680381201514
87, 528.41, 414.63, 384.12, 0.00, 0.000, 0.000, 0.000, 16:33:21.515, 1680381201515
88, 40.78, 29.32, 34.50, 0.00, 0.000, 0.000, 0.000, 16:33:21.515, 1680381201515
89, -503.74, -264.41, -260.49, 0.00, 0.000, 0.000, 0.000, 16:33:21.543, 1680381201543
90, 203.08, 227.94, 175.19, 0.00, 0.000, 0.000, 0.000, 16:33:21.543, 1680381201543
91, 400.69, 278.27, 255.59, 0.00, 0.000, 0.000, 0.000, 16:33:21.544, 1680381201544
92, -486.78, -268.91, -263.11, 0.00, 0.000, 0.000, 0.000, 16:33:21.544, 1680381201544
93, -176.62, -9.39, -62.84, 0.00, 0.000, 0.000, 0.000, 16:33:21.572, 1680381201572
94, 604.10, 441.70, 400.40, 0.00, 0.000, 0.000, 0.000, 16:33:21.572, 1680381201572
95, -307.04, -169.50, -169.48, 0.00, 0.000, 0.000, 0.000, 16:33:21.573, 1680381201573
96, -425.53, -184.01, -209.76, 0.00, 0.000, 0.000, 0.000, 16:33:21.573, 1680381201573
97, 513.77, 419.79, 362.18, 0.00, 0.000, 0.000, 0.000, 16:33:21.574, 1680381201574
98, 30.37, 37.28, 21.55, 0.00, 0.000, 0.000, 0.000, 16:33:21.574, 1680381201574
99, -522.64, -266.47, -274.00, 0.00, 0.000, 0.000, 0.000, 16:33:21.575, 1680381201575
100, 178.58, 221.20, 151.53, 0.00, 0.000, 0.000, 0.000, 16:33:21.575, 1680381201575
101, 395.02, 277.12, 242.61, 0.00, 0.000, 0.000, 0.000, 16:33:21.603, 1680381201603
102, -481.56, -263.92, -269.53, 0.00, 0.000, 0.000, 0.000, 16:33:21.603, 1680381201603
103, -176.16, -11.89, -62.92, 0.00, 0.000, 0.000, 0.000, 16:33:21.604, 1680381201604
104, 608.26, 446.33, 407.63, 0.00, 0.000, 0.000, 0.000, 16:33:21.604, 1680381201604
105, -309.26, -170.35, -148.14, 0.00, 0.000, 0.000, 0.000, 16:33:21.632, 1680381201632
106, -429.48, -192.40, -192.75, 0.00, 0.000, 0.000, 0.000, 16:33:21.632, 1680381201632
107, 507.45, 419.35, 386.41, 0.00, 0.000, 0.000, 0.000, 16:33:21.633, 1680381201633
108, 28.12, 36.64, 47.81, 0.00, 0.000, 0.000, 0.000, 16:33:21.633, 1680381201633
109, -521.12, -265.14, -265.05, 0.00, 0.000, 0.000, 0.000, 16:33:21.634, 1680381201634
110, 176.00, 224.14, 149.36, 0.00, 0.000, 0.000, 0.000, 16:33:21.634, 1680381201634
111, 395.01, 277.51, 231.75, 0.00, 0.000, 0.000, 0.000, 16:33:21.635, 1680381201635
112, -495.33, -274.40, -296.48, 0.00, 0.000, 0.000, 0.000, 16:33:21.635, 1680381201635
113, -190.42, -18.36, -94.05, 0.00, 0.000, 0.000, 0.000, 16:33:21.663, 1680381201663
114, 604.39, 446.49, 390.83, 0.00, 0.000, 0.000, 0.000, 16:33:21.663, 1680381201663
115, -299.83, -168.66, -166.08, 0.00, 0.000, 0.000, 0.000, 16:33:21.663, 1680381201663
116, -428.38, -192.46, -204.71, 0.00, 0.000, 0.000, 0.000, 16:33:21.663, 1680381201663
117, 502.46, 410.83, 376.95, 0.00, 0.000, 0.000, 0.000, 16:33:21.693, 1680381201693
118, 30.73, 40.79, 42.41, 0.00, 0.000, 0.000, 0.000, 16:33:21.693, 1680381201693
119, -529.65, -259.83, -266.02, 0.00, 0.000, 0.000, 0.000, 16:33:21.694, 1680381201694
120, 177.67, 222.22, 163.04, 0.00, 0.000, 0.000, 0.000, 16:33:21.694, 1680381201694
121, 403.66, 286.90, 260.73, 0.00, 0.000, 0.000, 0.000, 16:33:21.694, 1680381201694
122, -483.12, -258.25, -260.34, 0.00, 0.000, 0.000, 0.000, 16:33:21.694, 1680381201694
123, -185.83, -6.57, -64.32, 0.00, 0.000, 0.000, 0.000, 16:33:21.695, 1680381201695
124, 609.03, 452.23, 398.16, 0.00, 0.000, 0.000, 0.000, 16:33:21.695, 1680381201695
125, -291.81, -160.18, -165.74, 0.00, 0.000, 0.000, 0.000, 16:33:21.724, 1680381201724
126, -429.39, -181.22, -227.02, 0.00, 0.000, 0.000, 0.000, 16:33:21.724, 1680381201724
127, 509.37, 423.14, 361.86, 0.00, 0.000, 0.000, 0.000, 16:33:21.724, 1680381201724
128, 44.32, 43.77, 42.30, 0.00, 0.000, 0.000, 0.000, 16:33:21.724, 1680381201724
129, -513.61, -259.00, -263.86, 0.00, 0.000, 0.000, 0.000, 16:33:21.753, 1680381201753
130, 172.17, 218.81, 160.77, 0.00, 0.000, 0.000, 0.000, 16:33:21.753, 1680381201753
131, 400.56, 284.24, 256.74, 0.00, 0.000, 0.000, 0.000, 16:33:21.753, 1680381201753
132, -482.59, -262.08, -265.76, 0.00, 0.000, 0.000, 0.000, 16:33:21.753, 1680381201753
133, -188.51, -14.96, -71.15, 0.00, 0.000, 0.000, 0.000, 16:33:21.754, 1680381201754
134, 602.99, 450.46, 395.64, 0.00, 0.000, 0.000, 0.000, 16:33:21.754, 1680381201754
135, -299.99, -167.47, -168.08, 0.00, 0.000, 0.000, 0.000, 16:33:21.755, 1680381201755
136, -436.76, -189.83, -221.02, 0.00, 0.000, 0.000, 0.000, 16:33:21.755, 1680381201755
137, 497.75, 416.32, 359.93, 0.00, 0.000, 0.000, 0.000, 16:33:21.783, 1680381201783
138, 34.56, 42.96, 42.21, 0.00, 0.000, 0.000, 0.000, 16:33:21.783, 1680381201783
139, -530.65, -288.33, -285.54, 0.00, 0.000, 0.000, 0.000, 16:33:21.783, 1680381201783
140, 143.75, 204.51, 150.30, 0.00, 0.000, 0.000, 0.000, 16:33:21.783, 1680381201783
141, 390.97, 286.15, 262.68, 0.00, 0.000, 0.000, 0.000, 16:33:21.813, 1680381201813
142, -496.23, -271.40, -257.98, 0.00, 0.000, 0.000, 0.000, 16:33:21.813, 1680381201813
143, -200.59, -21.14, -69.29, 0.00, 0.000, 0.000, 0.000, 16:33:21.814, 1680381201814
144, 605.24, 448.93, 407.51, 0.00, 0.000, 0.000, 0.000, 16:33:21.814, 1680381201814
145, -300.00, -166.43, -151.69, 0.00, 0.000, 0.000, 0.000, 16:33:21.814, 1680381201814
146, -432.66, -199.74, -220.92, 0.00, 0.000, 0.000, 0.000, 16:33:21.814, 1680381201814
147, 497.98, 413.85, 354.04, 0.00, 0.000, 0.000, 0.000, 16:33:21.815, 1680381201815
148, 50.19, 45.59, 42.26, 0.00, 0.000, 0.000, 0.000, 16:33:21.815, 1680381201815
149, -513.09, -259.45, -266.36, 0.00, 0.000, 0.000, 0.000, 16:33:21.843, 1680381201843
150, 181.00, 221.68, 157.19, 0.00, 0.000, 0.000, 0.000, 16:33:21.843, 1680381201843
151, 430.65, 299.04, 269.73, 0.00, 0.000, 0.000, 0.000, 16:33:21.844, 1680381201844
152, -470.30, -252.95, -250.75, 0.00, 0.000, 0.000, 0.000, 16:33:21.844, 1680381201844
153, -173.92, -9.82, -53.67, 0.00, 0.000, 0.000, 0.000, 16:33:21.873, 1680381201873
154, 618.75, 455.02, 429.03, 0.00, 0.000, 0.000, 0.000, 16:33:21.873, 1680381201873
155, -288.65, -168.42, -132.15, 0.00, 0.000, 0.000, 0.000, 16:33:21.873, 1680381201873
156, -430.91, -189.03, -194.70, 0.00, 0.000, 0.000, 0.000, 16:33:21.873, 1680381201873
157, 500.82, 419.83, 370.29, 0.00, 0.000, 0.000, 0.000, 16:33:21.874, 1680381201874
158, 54.22, 50.05, 40.76, 0.00, 0.000, 0.000, 0.000, 16:33:21.874, 1680381201874
159, -515.92, -264.61, -277.69, 0.00, 0.000, 0.000, 0.000, 16:33:21.876, 1680381201876
160, 162.77, 216.85, 142.01, 0.00, 0.000, 0.000, 0.000, 16:33:21.876, 1680381201876
161, 419.77, 294.23, 264.26, 0.00, 0.000, 0.000, 0.000, 16:33:21.903, 1680381201903
162, -469.39, -254.00, -258.44, 0.00, 0.000, 0.000, 0.000, 16:33:21.903, 1680381201903
163, -190.27, -13.84, -64.60, 0.00, 0.000, 0.000, 0.000, 16:33:21.903, 1680381201903
164, 617.94, 453.63, 406.01, 0.00, 0.000, 0.000, 0.000, 16:33:21.903, 1680381201903
165, -288.03, -163.88, -155.50, 0.00, 0.000, 0.000, 0.000, 16:33:21.933, 1680381201933
166, -438.01, -200.48, -210.15, 0.00, 0.000, 0.000, 0.000, 16:33:21.933, 1680381201933
167, 491.38, 408.28, 360.40, 0.00, 0.000, 0.000, 0.000, 16:33:21.933, 1680381201933
168, 51.63, 44.36, 48.36, 0.00, 0.000, 0.000, 0.000, 16:33:21.933, 1680381201933
169, -521.95, -263.42, -274.00, 0.00, 0.000, 0.000, 0.000, 16:33:21.934, 1680381201934
170, 156.49, 207.30, 140.18, 0.00, 0.000, 0.000, 0.000, 16:33:21.934, 1680381201934
171, 418.16, 292.42, 261.56, 0.00, 0.000, 0.000, 0.000, 16:33:21.935, 1680381201935
172, -474.46, -257.88, -266.65, 0.00, 0.000, 0.000, 0.000, 16:33:21.935, 1680381201935
173, -209.70, -32.66, -86.99, 0.00, 0.000, 0.000, 0.000, 16:33:21.963, 1680381201963
174, 612.86, 451.13, 411.57, 0.00, 0.000, 0.000, 0.000, 16:33:21.963, 1680381201963
175, -280.46, -162.41, -154.88, 0.00, 0.000, 0.000, 0.000, 16:33:21.963, 1680381201963
176, -431.94, -190.26, -216.26, 0.00, 0.000, 0.000, 0.000, 16:33:21.963, 1680381201963
177, 504.62, 413.46, 358.61, 0.00, 0.000, 0.000, 0.000, 16:33:21.993, 1680381201993
178, 70.79, 55.14, 50.51, 0.00, 0.000, 0.000, 0.000, 16:33:21.993, 1680381201993
179, -507.28, -262.02, -256.49, 0.00, 0.000, 0.000, 0.000, 16:33:21.993, 1680381201993
180, 168.15, 206.49, 148.09, 0.00, 0.000, 0.000, 0.000, 16:33:21.993, 1680381201993
181, 433.90, 300.11, 274.59, 0.00, 0.000, 0.000, 0.000, 16:33:21.994, 1680381201994
182, -465.20, -254.34, -255.80, 0.00, 0.000, 0.000, 0.000, 16:33:21.994, 1680381201994
183, -198.26, -30.94, -80.86, 0.00, 0.000, 0.000, 0.000, 16:33:21.995, 1680381201995
184, 615.97, 450.73, 406.01, 0.00, 0.000, 0.000, 0.000, 16:33:21.995, 1680381201995
185, -271.91, -154.93, -144.53, 0.00, 0.000, 0.000, 0.000, 16:33:22.023, 1680381202023
186, -427.45, -189.16, -219.63, 0.00, 0.000, 0.000, 0.000, 16:33:22.023, 1680381202023
187, 498.52, 411.33, 350.79, 0.00, 0.000, 0.000, 0.000, 16:33:22.023, 1680381202023
188, 71.17, 58.86, 54.79, 0.00, 0.000, 0.000, 0.000, 16:33:22.023, 1680381202023
189, -511.13, -260.10, -258.69, 0.00, 0.000, 0.000, 0.000, 16:33:22.052, 1680381202052
190, 155.37, 205.73, 152.16, 0.00, 0.000, 0.000, 0.000, 16:33:22.052, 1680381202052
191, 430.77, 300.52, 279.49, 0.00, 0.000, 0.000, 0.000, 16:33:22.053, 1680381202053
192, -471.30, -261.46, -252.14, 0.00, 0.000, 0.000, 0.000, 16:33:22.053, 1680381202053
193, -199.42, -26.59, -74.27, 0.00, 0.000, 0.000, 0.000, 16:33:22.054, 1680381202054
194, 615.50, 454.17, 411.49, 0.00, 0.000, 0.000, 0.000, 16:33:22.054, 1680381202054
195, -276.11, -159.64, -150.27, 0.00, 0.000, 0.000, 0.000, 16:33:22.055, 1680381202055
196, -435.71, -200.01, -226.28, 0.00, 0.000, 0.000, 0.000, 16:33:22.055, 1680381202055
197, 490.97, 409.34, 346.83, 0.00, 0.000, 0.000, 0.000, 16:33:22.083, 1680381202083
198, 70.45, 57.93, 46.98, 0.00, 0.000, 0.000, 0.000, 16:33:22.083, 1680381202083
199, -517.33, -267.06, -274.57, 0.00, 0.000, 0.000, 0.000, 16:33:22.083, 1680381202083
200, 145.66, 197.28, 139.30, 0.00, 0.000, 0.000, 0.000, 16:33:22.083, 1680381202083
0, 429.66, 297.77, 273.42, 0.00, 0.000, 0.000, 0.000, 16:33:22.084, 1680381202084
1, -468.52, -256.12, -246.95, 0.00, 0.000, 0.000, 0.000, 16:33:22.113, 1680381202113
2, -206.86, -28.18, -83.08, 0.00, 0.000, 0.000, 0.000, 16:33:22.113, 1680381202113
3, 610.53, 454.29, 405.00, 0.00, 0.000, 0.000, 0.000, 16:33:22.113, 1680381202113
4, -284.19, -151.31, -156.88, 0.00, 0.000, 0.000, 0.000, 16:33:22.113, 1680381202113
5, -437.70, -188.61, -220.70, 0.00, 0.000, 0.000, 0.000, 16:33:22.114, 1680381202114
6, 486.23, 411.35, 348.45, 0.00, 0.000, 0.000, 0.000, 16:33:22.114, 1680381202114
7, 66.64, 58.94, 48.22, 0.00, 0.000, 0.000, 0.000, 16:33:22.143, 1680381202143
8, -521.26, -264.34, -269.53, 0.00, 0.000, 0.000, 0.000, 16:33:22.143, 1680381202143
9, 148.81, 208.06, 139.38, 0.00, 0.000, 0.000, 0.000, 16:33:22.143, 1680381202143
10, 438.51, 307.75, 283.64, 0.00, 0.000, 0.000, 0.000, 16:33:22.143, 1680381202143
11, -466.40, -255.07, -245.77, 0.00, 0.000, 0.000, 0.000, 16:33:22.144, 1680381202144
12, -202.66, -25.12, -76.25, 0.00, 0.000, 0.000, 0.000, 16:33:22.144, 1680381202144
13, 622.33, 463.35, 417.74, 0.00, 0.000, 0.000, 0.000, 16:33:22.173, 1680381202173
14, -261.78, -141.91, -139.49, 0.00, 0.000, 0.000, 0.000, 16:33:22.173, 1680381202173
15, -428.94, -192.78, -212.52, 0.00, 0.000, 0.000, 0.000, 16:33:22.173, 1680381202173
16, 504.01, 416.21, 356.79, 0.00, 0.000, 0.000, 0.000, 16:33:22.173, 1680381202173
17, 92.46, 74.35, 66.91, 0.00, 0.000, 0.000, 0.000, 16:33:22.174, 1680381202174
18, -501.57, -255.98, -251.19, 0.00, 0.000, 0.000, 0.000, 16:33:22.174, 1680381202174
19, 154.12, 209.81, 146.87, 0.00, 0.000, 0.000, 0.000, 16:33:22.202, 1680381202202
20, 444.82, 309.63, 287.33, 0.00, 0.000, 0.000, 0.000, 16:33:22.202, 1680381202202
21, -459.84, -256.58, -242.82, 0.00, 0.000, 0.000, 0.000, 16:33:22.203, 1680381202203
22, -206.37, -31.43, -74.83, 0.00, 0.000, 0.000, 0.000, 16:33:22.203, 1680381202203
23, 621.34, 459.48, 420.83, 0.00, 0.000, 0.000, 0.000, 16:33:22.204, 1680381202204
24, -259.74, -144.35, -140.13, 0.00, 0.000, 0.000, 0.000, 16:33:22.204, 1680381202204
25, -434.73, -194.89, -209.57, 0.00, 0.000, 0.000, 0.000, 16:33:22.232, 1680381202232
26, 484.96, 392.92, 339.89, 0.00, 0.000, 0.000, 0.000, 16:33:22.232, 1680381202232
27, 74.03, 58.78, 52.75, 0.00, 0.000, 0.000, 0.000, 16:33:22.233, 1680381202233
28, -516.09, -266.08, -259.79, 0.00, 0.000, 0.000, 0.000, 16:33:22.233, 1680381202233
29, 140.10, 199.72, 145.99, 0.00, 0.000, 0.000, 0.000, 16:33:22.234, 1680381202234
30, 448.36, 327.88, 288.89, 0.00, 0.000, 0.000, 0.000, 16:33:22.234, 1680381202234
31, -470.73, -228.42, -253.44, 0.00, 0.000, 0.000, 0.000, 16:33:22.263, 1680381202263
32, -227.10, -12.63, -103.93, 0.00, 0.000, 0.000, 0.000, 16:33:22.263, 1680381202263
33, 596.30, 478.15, 390.14, 0.00, 0.000, 0.000, 0.000, 16:33:22.264, 1680381202264
34, -294.01, -151.71, -167.79, 0.00, 0.000, 0.000, 0.000, 16:33:22.264, 1680381202264
35, -478.23, -232.92, -249.25, 0.00, 0.000, 0.000, 0.000, 16:33:22.270, 1680381202270
36, 456.28, 371.38, 336.79, 0.00, 0.000, 0.000, 0.000, 16:33:22.270, 1680381202270
37, 70.00, 40.60, 65.98, 0.00, 0.000, 0.000, 0.000, 16:33:22.293, 1680381202293
38, -509.19, -280.23, -260.80, 0.00, 0.000, 0.000, 0.000, 16:33:22.293, 1680381202293
39, 149.61, 190.48, 159.62, 0.00, 0.000, 0.000, 0.000, 16:33:22.295, 1680381202295
40, 453.32, 306.84, 295.45, 0.00, 0.000, 0.000, 0.000, 16:33:22.295, 1680381202295
41, -452.70, -249.78, -240.73, 0.00, 0.000, 0.000, 0.000, 16:33:22.295, 1680381202295
42, -210.85, -35.35, -80.40, 0.00, 0.000, 0.000, 0.000, 16:33:22.295, 1680381202295
43, 616.68, 450.90, 409.23, 0.00, 0.000, 0.000, 0.000, 16:33:22.324, 1680381202324
44, -275.42, -154.35, -157.53, 0.00, 0.000, 0.000, 0.000, 16:33:22.324, 1680381202324
45, -453.89, -204.95, -238.19, 0.00, 0.000, 0.000, 0.000, 16:33:22.324, 1680381202324
46, 475.17, 395.06, 342.15, 0.00, 0.000, 0.000, 0.000, 16:33:22.324, 1680381202324
47, 87.75, 65.30, 54.98, 0.00, 0.000, 0.000, 0.000, 16:33:22.326, 1680381202326
48, -519.17, -277.09, -271.05, 0.00, 0.000, 0.000, 0.000, 16:33:22.326, 1680381202326
49, 127.17, 183.89, 124.00, 0.00, 0.000, 0.000, 0.000, 16:33:22.353, 1680381202353
50, 437.81, 301.56, 272.98, 0.00, 0.000, 0.000, 0.000, 16:33:22.353, 1680381202353
51, -477.59, -264.37, -264.51, 0.00, 0.000, 0.000, 0.000, 16:33:22.353, 1680381202353
52, -225.77, -48.29, -103.98, 0.00, 0.000, 0.000, 0.000, 16:33:22.353, 1680381202353
53, 612.19, 448.28, 390.81, 0.00, 0.000, 0.000, 0.000, 16:33:22.354, 1680381202354
54, -263.99, -153.27, -161.15, 0.00, 0.000, 0.000, 0.000, 16:33:22.354, 1680381202354
55, -452.75, -206.34, -228.24, 0.00, 0.000, 0.000, 0.000, 16:33:22.383, 1680381202383
56, 462.67, 390.75, 351.87, 0.00, 0.000, 0.000, 0.000, 16:33:22.383, 1680381202383
57, 80.91, 61.11, 81.22, 0.00, 0.000, 0.000, 0.000, 16:33:22.383, 1680381202383
58, -516.73, -270.58, -235.62, 0.00, 0.000, 0.000, 0.000, 16:33:22.383, 1680381202383
59, 128.21, 196.76, 155.99, 0.00, 0.000, 0.000, 0.000, 16:33:22.384, 1680381202384
60, 439.82, 310.84, 302.03, 0.00, 0.000, 0.000, 0.000, 16:33:22.384, 1680381202384
61, -472.65, -250.58, -255.36, 0.00, 0.000, 0.000, 0.000, 16:33:22.413, 1680381202413
62, -233.82, -48.27, -115.31, 0.00, 0.000, 0.000, 0.000, 16:33:22.413, 1680381202413
63, 614.39, 456.32, 381.95, 0.00, 0.000, 0.000, 0.000, 16:33:22.413, 1680381202413
64, -260.93, -148.81, -168.89, 0.00, 0.000, 0.000, 0.000, 16:33:22.413, 1680381202413
65, -445.76, -208.33, -241.41, 0.00, 0.000, 0.000, 0.000, 16:33:22.414, 1680381202414
66, 474.26, 395.96, 334.95, 0.00, 0.000, 0.000, 0.000, 16:33:22.414, 1680381202414
67, 102.54, 73.46, 73.46, 0.00, 0.000, 0.000, 0.000, 16:33:22.443, 1680381202443
68, -507.09, -263.75, -251.01, 0.00, 0.000, 0.000, 0.000, 16:33:22.443, 1680381202443
69, 129.84, 191.39, 142.68, 0.00, 0.000, 0.000, 0.000, 16:33:22.443, 1680381202443
70, 456.33, 321.13, 303.67, 0.00, 0.000, 0.000, 0.000, 16:33:22.443, 1680381202443
71, -463.90, -250.41, -242.04, 0.00, 0.000, 0.000, 0.000, 16:33:22.444, 1680381202444
72, -228.89, -43.62, -92.35, 0.00, 0.000, 0.000, 0.000, 16:33:22.444, 1680381202444
73, 615.87, 460.67, 411.66, 0.00, 0.000, 0.000, 0.000, 16:33:22.473, 1680381202473
74, -260.59, -139.48, -146.10, 0.00, 0.000, 0.000, 0.000, 16:33:22.473, 1680381202473
75, -449.08, -201.37, -235.34, 0.00, 0.000, 0.000, 0.000, 16:33:22.473, 1680381202473
76, 459.88, 394.49, 332.79, 0.00, 0.000, 0.000, 0.000, 16:33:22.473, 1680381202473
77, 94.51, 74.49, 56.05, 0.00, 0.000, 0.000, 0.000, 16:33:22.474, 1680381202474
78, -515.64, -262.66, -270.13, 0.00, 0.000, 0.000, 0.000, 16:33:22.474, 1680381202474
79, 122.12, 188.11, 136.93, 0.00, 0.000, 0.000, 0.000, 16:33:22.503, 1680381202503
80, 444.62, 314.19, 288.03, 0.00, 0.000, 0.000, 0.000, 16:33:22.503, 1680381202503
81, -467.20, -268.73, -266.92, 0.00, 0.000, 0.000, 0.000, 16:33:22.503, 1680381202503
82, -245.95, -53.59, -108.07, 0.00, 0.000, 0.000, 0.000, 16:33:22.503, 1680381202503
83, 595.50, 447.58, 395.55, 0.00, 0.000, 0.000, 0.000, 16:33:22.504, 1680381202504
84, -271.17, -151.38, -158.32, 0.00, 0.000, 0.000, 0.000, 16:33:22.504, 1680381202504
85, -463.73, -215.11, -248.26, 0.00, 0.000, 0.000, 0.000, 16:33:22.533, 1680381202533
86, 456.19, 393.27, 328.47, 0.00, 0.000, 0.000, 0.000, 16:33:22.533, 1680381202533
87, 91.40, 74.95, 60.51, 0.00, 0.000, 0.000, 0.000, 16:33:22.534, 1680381202534
88, -529.16, -276.94, -278.87, 0.00, 0.000, 0.000, 0.000, 16:33:22.534, 1680381202534
89, 118.38, 177.73, 126.14, 0.00, 0.000, 0.000, 0.000, 16:33:22.534, 1680381202534
90, 458.11, 327.29, 302.28, 0.00, 0.000, 0.000, 0.000, 16:33:22.534, 1680381202534
91, -462.65, -251.39, -236.49, 0.00, 0.000, 0.000, 0.000, 16:33:22.563, 1680381202563
92, -235.61, -55.02, -88.12, 0.00, 0.000, 0.000, 0.000, 16:33:22.563, 1680381202563
93, 611.68, 449.66, 420.04, 0.00, 0.000, 0.000, 0.000, 16:33:22.563, 1680381202563
94, -254.48, -141.04, -134.49, 0.00, 0.000, 0.000, 0.000, 16:33:22.563, 1680381202563
95, -448.08, -212.01, -231.22, 0.00, 0.000, 0.000, 0.000, 16:33:22.564, 1680381202564
96, 462.79, 390.67, 333.75, 0.00, 0.000, 0.000, 0.000, 16:33:22.564, 1680381202564
97, 89.26, 73.40, 66.99, 0.00, 0.000, 0.000, 0.000, 16:33:22.593, 1680381202593
98, -524.03, -273.12, -275.94, 0.00, 0.000, 0.000, 0.000, 16:33:22.593, 1680381202593
99, 117.97, 176.19, 125.27, 0.00, 0.000, 0.000, 0.000, 16:33:22.593, 1680381202593
100, 466.38, 318.65, 293.51, 0.00, 0.000, 0.000, 0.000, 16:33:22.593, 1680381202593
101, -454.54, -252.79, -250.62, 0.00, 0.000, 0.000, 0.000, 16:33:22.594, 1680381202594
102, -234.51, -53.01, -98.60, 0.00, 0.000, 0.000, 0.000, 16:33:22.594, 1680381202594
103, 616.16, 459.72, 410.81, 0.00, 0.000, 0.000, 0.000, 16:33:22.623, 1680381202623
104, -247.19, -135.36, -135.14, 0.00, 0.000, 0.000, 0.000, 16:33:22.623, 1680381202623
105, -454.32, -209.41, -233.76, 0.00, 0.000, 0.000, 0.000, 16:33:22.623, 1680381202623
106, 465.05, 386.14, 337.60, 0.00, 0.000, 0.000, 0.000, 16:33:22.623, 1680381202623
107, 111.13, 81.06, 83.84, 0.00, 0.000, 0.000, 0.000, 16:33:22.625, 1680381202625
108, -512.44, -265.55, -253.22, 0.00, 0.000, 0.000, 0.000, 16:33:22.625, 1680381202625
109, 111.87, 183.70, 133.76, 0.00, 0.000, 0.000, 0.000, 16:33:22.653, 1680381202653
110, 456.82, 328.37, 305.11, 0.00, 0.000, 0.000, 0.000, 16:33:22.653, 1680381202653
111, -464.78, -250.12, -251.37, 0.00, 0.000, 0.000, 0.000, 16:33:22.653, 1680381202653
112, -238.25, -47.75, -108.32, 0.00, 0.000, 0.000, 0.000, 16:33:22.653, 1680381202653
113, 621.99, 462.77, 410.45, 0.00, 0.000, 0.000, 0.000, 16:33:22.654, 1680381202654
114, -234.56, -132.11, -128.69, 0.00, 0.000, 0.000, 0.000, 16:33:22.654, 1680381202654
115, -450.84, -207.75, -235.54, 0.00, 0.000, 0.000, 0.000, 16:33:22.682, 1680381202682
116, 469.21, 391.14, 330.61, 0.00, 0.000, 0.000, 0.000, 16:33:22.682, 1680381202682
117, 117.31, 87.69, 73.40, 0.00, 0.000, 0.000, 0.000, 16:33:22.683, 1680381202683
118, -511.38, -270.77, -270.72, 0.00, 0.000, 0.000, 0.000, 16:33:22.683, 1680381202683
119, 109.47, 175.06, 125.12, 0.00, 0.000, 0.000, 0.000, 16:33:22.684, 1680381202684
120, 467.05, 329.36, 316.20, 0.00, 0.000, 0.000, 0.000, 16:33:22.684, 1680381202684
121, -457.48, -248.58, -236.92, 0.00, 0.000, 0.000, 0.000, 16:33:22.712, 1680381202712
122, -242.76, -57.49, -98.84, 0.00, 0.000, 0.000, 0.000, 16:33:22.712, 1680381202712
123, 619.88, 460.12, 416.18, 0.00, 0.000, 0.000, 0.000, 16:33:22.714, 1680381202714
124, -244.17, -140.09, -145.53, 0.00, 0.000, 0.000, 0.000, 16:33:22.714, 1680381202714
125, -462.32, -220.25, -246.42, 0.00, 0.000, 0.000, 0.000, 16:33:22.714, 1680381202714
126, 452.12, 383.22, 318.54, 0.00, 0.000, 0.000, 0.000, 16:33:22.714, 1680381202714
127, 111.81, 81.92, 70.17, 0.00, 0.000, 0.000, 0.000, 16:33:22.742, 1680381202742
128, -532.24, -275.33, -278.09, 0.00, 0.000, 0.000, 0.000, 16:33:22.742, 1680381202742
129, 93.84, 168.40, 108.60, 0.00, 0.000, 0.000, 0.000, 16:33:22.744, 1680381202744
130, 458.43, 321.74, 293.94, 0.00, 0.000, 0.000, 0.000, 16:33:22.744, 1680381202744
131, -462.49, -261.08, -251.90, 0.00, 0.000, 0.000, 0.000, 16:33:22.744, 1680381202744
132, -247.11, -62.74, -110.52, 0.00, 0.000, 0.000, 0.000, 16:33:22.744, 1680381202744
133, 616.48, 458.41, 413.23, 0.00, 0.000, 0.000, 0.000, 16:33:22.773, 1680381202773
134, -241.36, -140.11, -137.54, 0.00, 0.000, 0.000, 0.000, 16:33:22.773, 1680381202773
135, -459.40, -213.62, -236.09, 0.00, 0.000, 0.000, 0.000, 16:33:22.773, 1680381202773
136, 450.32, 385.09, 318.55, 0.00, 0.000, 0.000, 0.000, 16:33:22.773, 1680381202773
137, 113.95, 86.21, 65.80, 0.00, 0.000, 0.000, 0.000, 16:33:22.780, 1680381202780
138, -523.49, -277.85, -276.89, 0.00, 0.000, 0.000, 0.000, 16:33:22.780, 1680381202780
139, 99.64, 172.03, 113.05, 0.00, 0.000, 0.000, 0.000, 16:33:22.803, 1680381202803
140, 466.01, 328.31, 300.40, 0.00, 0.000, 0.000, 0.000, 16:33:22.803, 1680381202803
141, -456.02, -246.28, -239.74, 0.00, 0.000, 0.000, 0.000, 16:33:22.804, 1680381202804
142, -245.62, -50.95, -105.21, 0.00, 0.000, 0.000, 0.000, 16:33:22.804, 1680381202804
143, 612.39, 455.40, 404.04, 0.00, 0.000, 0.000, 0.000, 16:33:22.804, 1680381202804
144, -250.03, -138.93, -139.14, 0.00, 0.000, 0.000, 0.000, 16:33:22.804, 1680381202804
145, -467.90, -222.67, -241.50, 0.00, 0.000, 0.000, 0.000, 16:33:22.833, 1680381202833
146, 437.94, 383.46, 319.89, 0.00, 0.000, 0.000, 0.000, 16:33:22.833, 1680381202833
147, 112.33, 85.10, 79.51, 0.00, 0.000, 0.000, 0.000, 16:33:22.834, 1680381202834
148, -531.70, -274.85, -275.72, 0.00, 0.000, 0.000, 0.000, 16:33:22.834, 1680381202834
149, 85.01, 167.59, 102.50, 0.00, 0.000, 0.000, 0.000, 16:33:22.835, 1680381202835
150, 462.48, 329.51, 303.10, 0.00, 0.000, 0.000, 0.000, 16:33:22.835, 1680381202835
151, -455.09, -249.42, -250.95, 0.00, 0.000, 0.000, 0.000, 16:33:22.863, 1680381202863
152, -247.28, -59.20, -105.72, 0.00, 0.000, 0.000, 0.000, 16:33:22.863, 1680381202863
153, 612.94, 460.42, 415.13, 0.00, 0.000, 0.000, 0.000, 16:33:22.863, 1680381202863
154, -232.25, -130.79, -128.14, 0.00, 0.000, 0.000, 0.000, 16:33:22.863, 1680381202863
155, -458.21, -212.28, -232.70, 0.00, 0.000, 0.000, 0.000, 16:33:22.864, 1680381202864
156, 447.83, 386.28, 331.51, 0.00, 0.000, 0.000, 0.000, 16:33:22.864, 1680381202864
157, 119.25, 94.37, 88.33, 0.00, 0.000, 0.000, 0.000, 16:33:22.892, 1680381202892
158, -524.88, -272.71, -272.35, 0.00, 0.000, 0.000, 0.000, 16:33:22.892, 1680381202892
159, 90.73, 167.48, 107.27, 0.00, 0.000, 0.000, 0.000, 16:33:22.893, 1680381202893
160, 468.35, 329.45, 303.68, 0.00, 0.000, 0.000, 0.000, 16:33:22.893, 1680381202893
161, -460.33, -250.15, -247.66, 0.00, 0.000, 0.000, 0.000, 16:33:22.894, 1680381202894
162, -256.01, -66.55, -108.04, 0.00, 0.000, 0.000, 0.000, 16:33:22.894, 1680381202894
163, 614.19, 462.42, 408.87, 0.00, 0.000, 0.000, 0.000, 16:33:22.923, 1680381202923
164, -230.76, -127.85, -133.34, 0.00, 0.000, 0.000, 0.000, 16:33:22.923, 1680381202923
165, -455.51, -208.67, -231.26, 0.00, 0.000, 0.000, 0.000, 16:33:22.923, 1680381202923
166, 443.94, 383.50, 320.47, 0.00, 0.000, 0.000, 0.000, 16:33:22.923, 1680381202923
167, 129.86, 99.33, 85.66, 0.00, 0.000, 0.000, 0.000, 16:33:22.924, 1680381202924
168, -520.77, -273.04, -275.33, 0.00, 0.000, 0.000, 0.000, 16:33:22.924, 1680381202924
169, 88.50, 170.36, 103.24, 0.00, 0.000, 0.000, 0.000, 16:33:22.952, 1680381202952
170, 475.13, 343.60, 303.42, 0.00, 0.000, 0.000, 0.000, 16:33:22.952, 1680381202952
171, -439.83, -245.12, -242.39, 0.00, 0.000, 0.000, 0.000, 16:33:22.953, 1680381202953
172, -246.18, -57.89, -105.11, 0.00, 0.000, 0.000, 0.000, 16:33:22.953, 1680381202953
173, 625.68, 464.88, 428.67, 0.00, 0.000, 0.000, 0.000, 16:33:22.954, 1680381202954
174, -225.92, -122.92, -120.55, 0.00, 0.000, 0.000, 0.000, 16:33:22.954, 1680381202954
175, -457.19, -217.11, -234.47, 0.00, 0.000, 0.000, 0.000, 16:33:22.983, 1680381202983
176, 450.19, 380.45, 323.96, 0.00, 0.000, 0.000, 0.000, 16:33:22.983, 1680381202983
177, 144.35, 96.74, 94.01, 0.00, 0.000, 0.000, 0.000, 16:33:22.983, 1680381202983
178, -511.21, -272.58, -269.69, 0.00, 0.000, 0.000, 0.000, 16:33:22.983, 1680381202983
179, 89.31, 166.32, 106.20, 0.00, 0.000, 0.000, 0.000, 16:33:22.984, 1680381202984
180, 484.14, 345.46, 319.60, 0.00, 0.000, 0.000, 0.000, 16:33:22.984, 1680381202984
181, -448.19, -250.43, -240.49, 0.00, 0.000, 0.000, 0.000, 16:33:23.013, 1680381203013
182, -255.49, -61.07, -107.86, 0.00, 0.000, 0.000, 0.000, 16:33:23.013, 1680381203013
183, 623.67, 467.13, 416.60, 0.00, 0.000, 0.000, 0.000, 16:33:23.013, 1680381203013
184, -219.14, -119.34, -117.32, 0.00, 0.000, 0.000, 0.000, 16:33:23.013, 1680381203013
185, -445.40, -206.50, -221.69, 0.00, 0.000, 0.000, 0.000, 16:33:23.014, 1680381203014
186, 455.69, 391.34, 336.81, 0.00, 0.000, 0.000, 0.000, 16:33:23.014, 1680381203014
187, 161.91, 128.08, 96.60, 0.00, 0.000, 0.000, 0.000, 16:33:23.043, 1680381203043
188, -501.03, -247.89, -276.41, 0.00, 0.000, 0.000, 0.000, 16:33:23.043, 1680381203043
189, 81.15, 188.87, 84.51, 0.00, 0.000, 0.000, 0.000, 16:33:23.044, 1680381203044
190, 473.64, 364.26, 289.01, 0.00, 0.000, 0.000, 0.000, 16:33:23.044, 1680381203044
191, -469.55, -247.00, -262.63, 0.00, 0.000, 0.000, 0.000, 16:33:23.045, 1680381203045
192, -289.31, -98.44, -129.66, 0.00, 0.000, 0.000, 0.000, 16:33:23.045, 1680381203045
193, 601.44, 426.80, 409.75, 0.00, 0.000, 0.000, 0.000, 16:33:23.073, 1680381203073
194, -219.81, -150.38, -114.95, 0.00, 0.000, 0.000, 0.000, 16:33:23.073, 1680381203073
195, -451.13, -229.73, -219.54, 0.00, 0.000, 0.000, 0.000, 16:33:23.073, 1680381203073
196, 450.03, 373.22, 333.71, 0.00, 0.000, 0.000, 0.000, 16:33:23.073, 1680381203073
197, 156.82, 107.29, 102.50, 0.00, 0.000, 0.000, 0.000, 16:33:23.075, 1680381203075
198, -506.49, -269.50, -269.14, 0.00, 0.000, 0.000, 0.000, 16:33:23.075, 1680381203075
199, 83.07, 156.45, 97.84, 0.00, 0.000, 0.000, 0.000, 16:33:23.103, 1680381203103
200, 485.64, 344.00, 307.71, 0.00, 0.000, 0.000, 0.000, 16:33:23.103, 1680381203103
0, -446.41, -247.61, -242.84, 0.00, 0.000, 0.000, 0.000, 16:33:23.104, 1680381203104
1, -265.20, -69.57, -123.58, 0.00, 0.000, 0.000, 0.000, 16:33:23.104, 1680381203104
2, 618.81, 467.25, 410.58, 0.00, 0.000, 0.000, 0.000, 16:33:23.104, 1680381203104
3, -212.00, -119.66, -121.05, 0.00, 0.000, 0.000, 0.000, 16:33:23.105, 1680381203105
4, -469.99, -219.91, -238.41, 0.00, 0.000, 0.000, 0.000, 16:33:23.105, 1680381203105
5, 424.02, 369.52, 304.68, 0.00, 0.000, 0.000, 0.000, 16:33:23.132, 1680381203132
6, 131.70, 95.92, 84.95, 0.00, 0.000, 0.000, 0.000, 16:33:23.132, 1680381203132
7, -533.80, -290.43, -304.03, 0.00, 0.000, 0.000, 0.000, 16:33:23.141, 1680381203141
8, 48.08, 144.86, 62.32, 0.00, 0.000, 0.000, 0.000, 16:33:23.141, 1680381203141
9, 472.83, 338.24, 288.73, 0.00, 0.000, 0.000, 0.000, 16:33:23.162, 1680381203162
10, -455.44, -254.43, -263.51, 0.00, 0.000, 0.000, 0.000, 16:33:23.162, 1680381203162
11, -271.61, -81.27, -110.55, 0.00, 0.000, 0.000, 0.000, 16:33:23.163, 1680381203163
12, 601.12, 460.43, 436.14, 0.00, 0.000, 0.000, 0.000, 16:33:23.163, 1680381203163
13, -234.86, -119.14, -86.48, 0.00, 0.000, 0.000, 0.000, 16:33:23.164, 1680381203164
14, -480.45, -220.98, -205.33, 0.00, 0.000, 0.000, 0.000, 16:33:23.164, 1680381203164
15, 419.49, 371.13, 328.15, 0.00, 0.000, 0.000, 0.000, 16:33:23.165, 1680381203165
16, 140.33, 106.73, 86.63, 0.00, 0.000, 0.000, 0.000, 16:33:23.165, 1680381203165
17, -523.06, -267.68, -299.15, 0.00, 0.000, 0.000, 0.000, 16:33:23.192, 1680381203192
18, 65.83, 148.81, 52.98, 0.00, 0.000, 0.000, 0.000, 16:33:23.192, 1680381203192
19, 480.31, 344.89, 279.88, 0.00, 0.000, 0.000, 0.000, 16:33:23.193, 1680381203193
20, -453.97, -248.20, -260.09, 0.00, 0.000, 0.000, 0.000, 16:33:23.193, 1680381203193
21, -274.36, -77.83, -121.06, 0.00, 0.000, 0.000, 0.000, 16:33:23.222, 1680381203222
22, 616.05, 461.11, 421.23, 0.00, 0.000, 0.000, 0.000, 16:33:23.222, 1680381203222
23, -218.54, -120.02, -105.80, 0.00, 0.000, 0.000, 0.000, 16:33:23.223, 1680381203223
24, -470.12, -219.50, -231.20, 0.00, 0.000, 0.000, 0.000, 16:33:23.223, 1680381203223
25, 425.58, 371.33, 316.35, 0.00, 0.000, 0.000, 0.000, 16:33:23.224, 1680381203224
26, 151.72, 110.70, 101.63, 0.00, 0.000, 0.000, 0.000, 16:33:23.224, 1680381203224
27, -528.27, -275.46, -276.91, 0.00, 0.000, 0.000, 0.000, 16:33:23.225, 1680381203225
28, 62.81, 149.84, 86.34, 0.00, 0.000, 0.000, 0.000, 16:33:23.225, 1680381203225
29, 486.78, 351.42, 312.69, 0.00, 0.000, 0.000, 0.000, 16:33:23.253, 1680381203253
30, -453.07, -247.35, -248.10, 0.00, 0.000, 0.000, 0.000, 16:33:23.253, 1680381203253
31, -279.81, -70.65, -129.51, 0.00, 0.000, 0.000, 0.000, 16:33:23.254, 1680381203254
32, 608.42, 467.12, 405.43, 0.00, 0.000, 0.000, 0.000, 16:33:23.254, 1680381203254
33, -214.80, -116.55, -107.85, 0.00, 0.000, 0.000, 0.000, 16:33:23.283, 1680381203283
34, -473.41, -217.48, -240.13, 0.00, 0.000, 0.000, 0.000, 16:33:23.283, 1680381203283
35, 418.93, 369.80, 313.98, 0.00, 0.000, 0.000, 0.000, 16:33:23.284, 1680381203284
36, 153.07, 114.53, 108.57, 0.00, 0.000, 0.000, 0.000, 16:33:23.284, 1680381203284
37, -520.38, -266.53, -264.43, 0.00, 0.000, 0.000, 0.000, 16:33:23.284, 1680381203284
38, 61.08, 144.71, 82.51, 0.00, 0.000, 0.000, 0.000, 16:33:23.284, 1680381203284
39, 488.26, 348.62, 312.48, 0.00, 0.000, 0.000, 0.000, 16:33:23.285, 1680381203285
40, -445.40, -247.21, -243.54, 0.00, 0.000, 0.000, 0.000, 16:33:23.285, 1680381203285
41, -276.76, -76.68, -127.53, 0.00, 0.000, 0.000, 0.000, 16:33:23.313, 1680381203313
42, 608.50, 466.44, 409.26, 0.00, 0.000, 0.000, 0.000, 16:33:23.313, 1680381203313
43, -206.74, -115.52, -112.09, 0.00, 0.000, 0.000, 0.000, 16:33:23.313, 1680381203313
44, -468.28, -220.81, -236.60, 0.00, 0.000, 0.000, 0.000, 16:33:23.313, 1680381203313
45, 428.27, 368.02, 315.98, 0.00, 0.000, 0.000, 0.000, 16:33:23.342, 1680381203342
46, 165.80, 118.29, 115.07, 0.00, 0.000, 0.000, 0.000, 16:33:23.342, 1680381203342
47, -507.55, -263.39, -261.29, 0.00, 0.000, 0.000, 0.000, 16:33:23.343, 1680381203343
48, 71.36, 150.48, 96.25, 0.00, 0.000, 0.000, 0.000, 16:33:23.343, 1680381203343
49, 509.29, 356.24, 330.77, 0.00, 0.000, 0.000, 0.000, 16:33:23.344, 1680381203344
50, -428.66, -242.99, -226.95, 0.00, 0.000, 0.000, 0.000, 16:33:23.344, 1680381203344
51, -264.27, -77.07, -111.35, 0.00, 0.000, 0.000, 0.000, 16:33:23.345, 1680381203345
52, 624.47, 462.91, 422.31, 0.00, 0.000, 0.000, 0.000, 16:33:23.345, 1680381203345
53, -201.76, -117.13, -111.45, 0.00, 0.000, 0.000, 0.000, 16:33:23.373, 1680381203373
54, -473.65, -222.79, -244.66, 0.00, 0.000, 0.000, 0.000, 16:33:23.373, 1680381203373
55, 420.97, 365.96, 302.38, 0.00, 0.000, 0.000, 0.000, 16:33:23.373, 1680381203373
56, 169.57, 117.12, 110.31, 0.00, 0.000, 0.000, 0.000, 16:33:23.373, 1680381203373
57, -513.39, -268.65, -268.86, 0.00, 0.000, 0.000, 0.000, 16:33:23.405, 1680381203405
58, 58.98, 142.21, 80.79, 0.00, 0.000, 0.000, 0.000, 16:33:23.405, 1680381203405
59, 504.31, 356.68, 322.01, 0.00, 0.000, 0.000, 0.000, 16:33:23.405, 1680381203405
60, -437.00, -245.27, -243.28, 0.00, 0.000, 0.000, 0.000, 16:33:23.405, 1680381203405
61, -277.63, -79.64, -128.75, 0.00, 0.000, 0.000, 0.000, 16:33:23.405, 1680381203405
62, 615.20, 457.87, 415.82, 0.00, 0.000, 0.000, 0.000, 16:33:23.405, 1680381203405
63, -200.47, -112.13, -102.20, 0.00, 0.000, 0.000, 0.000, 16:33:23.412, 1680381203412
64, -471.41, -222.99, -226.04, 0.00, 0.000, 0.000, 0.000, 16:33:23.412, 1680381203412
65, 418.74, 347.20, 306.37, 0.00, 0.000, 0.000, 0.000, 16:33:23.433, 1680381203433
66, 145.65, 106.73, 96.74, 0.00, 0.000, 0.000, 0.000, 16:33:23.433, 1680381203433
67, -537.62, -281.39, -278.54, 0.00, 0.000, 0.000, 0.000, 16:33:23.433, 1680381203433
68, 33.73, 136.97, 60.89, 0.00, 0.000, 0.000, 0.000, 16:33:23.433, 1680381203433
69, 491.23, 355.07, 318.50, 0.00, 0.000, 0.000, 0.000, 16:33:23.462, 1680381203462
70, -450.76, -248.19, -246.99, 0.00, 0.000, 0.000, 0.000, 16:33:23.462, 1680381203462
71, -295.43, -84.86, -140.23, 0.00, 0.000, 0.000, 0.000, 16:33:23.463, 1680381203463
72, 606.02, 459.71, 403.93, 0.00, 0.000, 0.000, 0.000, 16:33:23.463, 1680381203463
73, -199.40, -107.93, -114.90, 0.00, 0.000, 0.000, 0.000, 16:33:23.464, 1680381203464
74, -475.14, -227.45, -247.21, 0.00, 0.000, 0.000, 0.000, 16:33:23.464, 1680381203464
75, 410.20, 360.55, 302.51, 0.00, 0.000, 0.000, 0.000, 16:33:23.465, 1680381203465
76, 172.23, 119.44, 116.35, 0.00, 0.000, 0.000, 0.000, 16:33:23.465, 1680381203465
77, -528.25, -282.33, -278.58, 0.00, 0.000, 0.000, 0.000, 16:33:23.493, 1680381203493
78, 41.97, 132.04, 79.73, 0.00, 0.000, 0.000, 0.000, 16:33:23.493, 1680381203493
79, 498.45, 357.47, 322.29, 0.00, 0.000, 0.000, 0.000, 16:33:23.495, 1680381203495
80, -447.21, -244.37, -246.99, 0.00, 0.000, 0.000, 0.000, 16:33:23.495, 1680381203495
81, -294.78, -93.03, -141.94, 0.00, 0.000, 0.000, 0.000, 16:33:23.524, 1680381203524
82, 607.34, 460.42, 405.77, 0.00, 0.000, 0.000, 0.000, 16:33:23.524, 1680381203524
83, -200.11, -110.60, -115.45, 0.00, 0.000, 0.000, 0.000, 16:33:23.524, 1680381203524
84, -484.36, -228.19, -244.72, 0.00, 0.000, 0.000, 0.000, 16:33:23.524, 1680381203524
85, 401.75, 361.27, 306.23, 0.00, 0.000, 0.000, 0.000, 16:33:23.526, 1680381203526
86, 169.54, 126.89, 115.57, 0.00, 0.000, 0.000, 0.000, 16:33:23.526, 1680381203526
87, -521.63, -276.19, -274.43, 0.00, 0.000, 0.000, 0.000, 16:33:23.527, 1680381203527
88, 48.92, 136.34, 74.62, 0.00, 0.000, 0.000, 0.000, 16:33:23.527, 1680381203527
89, 509.11, 355.68, 324.62, 0.00, 0.000, 0.000, 0.000, 16:33:23.553, 1680381203553
90, -435.89, -240.30, -241.03, 0.00, 0.000, 0.000, 0.000, 16:33:23.553, 1680381203553
91, -291.11, -84.00, -136.32, 0.00, 0.000, 0.000, 0.000, 16:33:23.554, 1680381203554
92, 612.62, 465.43, 410.19, 0.00, 0.000, 0.000, 0.000, 16:33:23.554, 1680381203554
93, -186.14, -100.59, -101.46, 0.00, 0.000, 0.000, 0.000, 16:33:23.583, 1680381203583
94, -476.88, -225.35, -245.61, 0.00, 0.000, 0.000, 0.000, 16:33:23.583, 1680381203583
95, 401.87, 358.44, 289.92, 0.00, 0.000, 0.000, 0.000, 16:33:23.583, 1680381203583
96, 182.63, 130.07, 113.92, 0.00, 0.000, 0.000, 0.000, 16:33:23.583, 1680381203583
97, -509.06, -268.67, -274.23, 0.00, 0.000, 0.000, 0.000, 16:33:23.584, 1680381203584
98, 40.01, 135.39, 73.30, 0.00, 0.000, 0.000, 0.000, 16:33:23.584, 1680381203584
99, 506.00, 364.75, 331.58, 0.00, 0.000, 0.000, 0.000, 16:33:23.585, 1680381203585
100, -432.50, -241.09, -229.03, 0.00, 0.000, 0.000, 0.000, 16:33:23.585, 1680381203585
101, -297.94, -91.86, -132.07, 0.00, 0.000, 0.000, 0.000, 16:33:23.612, 1680381203612
102, 602.11, 458.42, 413.68, 0.00, 0.000, 0.000, 0.000, 16:33:23.612, 1680381203612
103, -192.20, -103.62, -101.04, 0.00, 0.000, 0.000, 0.000, 16:33:23.614, 1680381203614
104, -473.15, -220.42, -243.41, 0.00, 0.000, 0.000, 0.000, 16:33:23.614, 1680381203614
105, 408.96, 355.38, 299.16, 0.00, 0.000, 0.000, 0.000, 16:33:23.642, 1680381203642
106, 190.04, 131.36, 119.43, 0.00, 0.000, 0.000, 0.000, 16:33:23.642, 1680381203642
107, -520.01, -271.24, -270.77, 0.00, 0.000, 0.000, 0.000, 16:33:23.643, 1680381203643
108, 43.84, 138.37, 76.11, 0.00, 0.000, 0.000, 0.000, 16:33:23.643, 1680381203643
109, 526.79, 371.50, 339.86, 0.00, 0.000, 0.000, 0.000, 16:33:23.644, 1680381203644
110, -426.36, -239.59, -234.15, 0.00, 0.000, 0.000, 0.000, 16:33:23.644, 1680381203644
111, -280.89, -88.82, -130.02, 0.00, 0.000, 0.000, 0.000, 16:33:23.646, 1680381203646
112, 618.60, 462.98, 415.31, 0.00, 0.000, 0.000, 0.000, 16:33:23.646, 1680381203646
113, -179.91, -101.64, -102.48, 0.00, 0.000, 0.000, 0.000, 16:33:23.672, 1680381203672
114, -470.36, -219.24, -241.20, 0.00, 0.000, 0.000, 0.000, 16:33:23.672, 1680381203672
115, 405.73, 359.11, 307.11, 0.00, 0.000, 0.000, 0.000, 16:33:23.673, 1680381203673
116, 197.65, 138.87, 129.59, 0.00, 0.000, 0.000, 0.000, 16:33:23.673, 1680381203673
117, -513.01, -269.69, -265.87, 0.00, 0.000, 0.000, 0.000, 16:33:23.703, 1680381203703
118, 29.59, 132.58, 65.90, 0.00, 0.000, 0.000, 0.000, 16:33:23.703, 1680381203703
119, 506.23, 365.12, 329.09, 0.00, 0.000, 0.000, 0.000, 16:33:23.704, 1680381203704
120, -434.15, -238.90, -235.90, 0.00, 0.000, 0.000, 0.000, 16:33:23.704, 1680381203704
121, -295.10, -91.51, -135.20, 0.00, 0.000, 0.000, 0.000, 16:33:23.705, 1680381203705
122, 609.01, 465.32, 416.24, 0.00, 0.000, 0.000, 0.000, 16:33:23.705, 1680381203705
123, -179.41, -103.97, -99.03, 0.00, 0.000, 0.000, 0.000, 16:33:23.712, 1680381203712
124, -481.10, -228.75, -251.20, 0.00, 0.000, 0.000, 0.000, 16:33:23.712, 1680381203712
125, 393.85, 350.85, 291.50, 0.00, 0.000, 0.000, 0.000, 16:33:23.733, 1680381203733
126, 198.33, 142.55, 127.57, 0.00, 0.000, 0.000, 0.000, 16:33:23.733, 1680381203733
127, -517.98, -268.78, -271.76, 0.00, 0.000, 0.000, 0.000, 16:33:23.733, 1680381203733
128, 31.82, 131.11, 65.31, 0.00, 0.000, 0.000, 0.000, 16:33:23.733, 1680381203733
129, 521.61, 375.00, 335.15, 0.00, 0.000, 0.000, 0.000, 16:33:23.763, 1680381203763
130, -425.85, -231.07, -221.68, 0.00, 0.000, 0.000, 0.000, 16:33:23.763, 1680381203763
131, -295.86, -91.41, -127.39, 0.00, 0.000, 0.000, 0.000, 16:33:23.763, 1680381203763
132, 614.36, 467.05, 422.86, 0.00, 0.000, 0.000, 0.000, 16:33:23.763, 1680381203763
133, -169.62, -91.22, -90.72, 0.00, 0.000, 0.000, 0.000, 16:33:23.764, 1680381203764
134, -477.68, -227.04, -239.85, 0.00, 0.000, 0.000, 0.000, 16:33:23.764, 1680381203764
135, 393.44, 350.42, 298.97, 0.00, 0.000, 0.000, 0.000, 16:33:23.765, 1680381203765
136, 196.79, 135.39, 127.88, 0.00, 0.000, 0.000, 0.000, 16:33:23.765, 1680381203765
137, -513.25, -273.67, -270.13, 0.00, 0.000, 0.000, 0.000, 16:33:23.793, 1680381203793
138, 28.04, 124.06, 69.00, 0.00, 0.000, 0.000, 0.000, 16:33:23.793, 1680381203793
139, 523.99, 370.01, 340.23, 0.00, 0.000, 0.000, 0.000, 16:33:23.793, 1680381203793
140, -422.05, -239.83, -235.63, 0.00, 0.000, 0.000, 0.000, 16:33:23.793, 1680381203793
141, -302.96, -99.69, -139.19, 0.00, 0.000, 0.000, 0.000, 16:33:23.823, 1680381203823
142, 612.64, 461.47, 417.35, 0.00, 0.000, 0.000, 0.000, 16:33:23.823, 1680381203823
143, -165.82, -95.14, -89.93, 0.00, 0.000, 0.000, 0.000, 16:33:23.823, 1680381203823
144, -470.99, -224.71, -238.30, 0.00, 0.000, 0.000, 0.000, 16:33:23.823, 1680381203823
145, 397.60, 358.84, 297.33, 0.00, 0.000, 0.000, 0.000, 16:33:23.825, 1680381203825
146, 210.45, 166.44, 130.04, 0.00, 0.000, 0.000, 0.000, 16:33:23.825, 1680381203825
147, -521.03, -253.81, -291.33, 0.00, 0.000, 0.000, 0.000, 16:33:23.826, 1680381203826
148, -0.22, 137.56, 29.02, 0.00, 0.000, 0.000, 0.000, 16:33:23.826, 1680381203826
149, 499.90, 380.89, 308.49, 0.00, 0.000, 0.000, 0.000, 16:33:23.853, 1680381203853
150, -462.45, -267.52, -257.68, 0.00, 0.000, 0.000, 0.000, 16:33:23.853, 1680381203853
151, -335.30, -138.57, -149.99, 0.00, 0.000, 0.000, 0.000, 16:33:23.854, 1680381203854
152, 599.33, 434.12, 417.67, 0.00, 0.000, 0.000, 0.000, 16:33:23.854, 1680381203854
153, -164.31, -109.07, -80.74, 0.00, 0.000, 0.000, 0.000, 16:33:23.882, 1680381203882
154, -464.74, -237.70, -231.35, 0.00, 0.000, 0.000, 0.000, 16:33:23.882, 1680381203882
155, 399.94, 351.07, 295.56, 0.00, 0.000, 0.000, 0.000, 16:33:23.883, 1680381203883
156, 220.12, 150.93, 140.48, 0.00, 0.000, 0.000, 0.000, 16:33:23.883, 1680381203883
157, -508.41, -270.03, -269.65, 0.00, 0.000, 0.000, 0.000, 16:33:23.884, 1680381203884
158, 18.07, 119.52, 62.59, 0.00, 0.000, 0.000, 0.000, 16:33:23.884, 1680381203884
159, 522.14, 369.00, 335.07, 0.00, 0.000, 0.000, 0.000, 16:33:23.885, 1680381203885
160, -426.60, -241.84, -240.92, 0.00, 0.000, 0.000, 0.000, 16:33:23.885, 1680381203885
161, -313.52, -110.35, -151.42, 0.00, 0.000, 0.000, 0.000, 16:33:23.912, 1680381203912
162, 578.54, 426.50, 385.17, 0.00, 0.000, 0.000, 0.000, 16:33:23.912, 1680381203912
163, -187.69, -94.36, -99.62, 0.00, 0.000, 0.000, 0.000, 16:33:23.913, 1680381203913
164, -505.41, -237.77, -263.90, 0.00, 0.000, 0.000, 0.000, 16:33:23.913, 1680381203913
165, 366.85, 333.76, 280.15, 0.00, 0.000, 0.000, 0.000, 16:33:23.943, 1680381203943
166, 193.79, 137.09, 113.08, 0.00, 0.000, 0.000, 0.000, 16:33:23.943, 1680381203943
167, -528.38, -280.96, -296.45, 0.00, 0.000, 0.000, 0.000, 16:33:23.945, 1680381203945
168, 8.40, 114.05, 39.20, 0.00, 0.000, 0.000, 0.000, 16:33:23.945, 1680381203945
169, 516.80, 363.26, 326.38, 0.00, 0.000, 0.000, 0.000, 16:33:23.945, 1680381203945
170, -429.27, -234.28, -229.90, 0.00, 0.000, 0.000, 0.000, 16:33:23.945, 1680381203945
171, -311.94, -101.14, -115.58, 0.00, 0.000, 0.000, 0.000, 16:33:23.946, 1680381203946
172, 605.14, 463.74, 446.56, 0.00, 0.000, 0.000, 0.000, 16:33:23.946, 1680381203946
173, -173.02, -92.55, -54.08, 0.00, 0.000, 0.000, 0.000, 16:33:23.973, 1680381203973
174, -494.81, -235.90, -221.45, 0.00, 0.000, 0.000, 0.000, 16:33:23.973, 1680381203973
175, 372.05, 351.22, 287.79, 0.00, 0.000, 0.000, 0.000, 16:33:23.974, 1680381203974
176, 197.37, 147.66, 109.72, 0.00, 0.000, 0.000, 0.000, 16:33:23.974, 1680381203974
177, -530.18, -276.30, -314.18, 0.00, 0.000, 0.000, 0.000, 16:33:24.003, 1680381204003
178, 13.36, 117.78, 23.77, 0.00, 0.000, 0.000, 0.000, 16:33:24.003, 1680381204003
179, 527.08, 376.01, 323.50, 0.00, 0.000, 0.000, 0.000, 16:33:24.004, 1680381204004
180, -416.96, -235.73, -237.68, 0.00, 0.000, 0.000, 0.000, 16:33:24.004, 1680381204004
181, -305.77, -94.67, -136.96, 0.00, 0.000, 0.000, 0.000, 16:33:24.004, 1680381204004
182, 613.07, 462.86, 425.62, 0.00, 0.000, 0.000, 0.000, 16:33:24.004, 1680381204004
183, -157.91, -84.05, -69.91, 0.00, 0.000, 0.000, 0.000, 16:33:24.005, 1680381204005
184, -484.41, -228.82, -235.88, 0.00, 0.000, 0.000, 0.000, 16:33:24.005, 1680381204005
185, 374.45, 339.63, 289.98, 0.00, 0.000, 0.000, 0.000, 16:33:24.033, 1680381204033
186, 207.32, 152.79, 143.53, 0.00, 0.000, 0.000, 0.000, 16:33:24.033, 1680381204033
187, -522.44, -271.51, -274.50, 0.00, 0.000, 0.000, 0.000, 16:33:24.034, 1680381204034
188, 4.75, 113.98, 47.72, 0.00, 0.000, 0.000, 0.000, 16:33:24.034, 1680381204034
189, 531.58, 390.32, 337.47, 0.00, 0.000, 0.000, 0.000, 16:33:24.063, 1680381204063
190, -424.17, -228.32, -237.87, 0.00, 0.000, 0.000, 0.000, 16:33:24.063, 1680381204063
191, -319.49, -103.43, -159.72, 0.00, 0.000, 0.000, 0.000, 16:33:24.063, 1680381204063
192, 599.15, 465.06, 402.27, 0.00, 0.000, 0.000, 0.000, 16:33:24.063, 1680381204063
193, -155.84, -82.54, -85.80, 0.00, 0.000, 0.000, 0.000, 16:33:24.064, 1680381204064
194, -484.06, -230.72, -239.98, 0.00, 0.000, 0.000, 0.000, 16:33:24.064, 1680381204064
195, 373.71, 347.33, 286.56, 0.00, 0.000, 0.000, 0.000, 16:33:24.065, 1680381204065
196, 220.07, 156.32, 149.13, 0.00, 0.000, 0.000, 0.000, 16:33:24.065, 1680381204065
197, -510.14, -267.92, -267.41, 0.00, 0.000, 0.000, 0.000, 16:33:24.093, 1680381204093
198, 12.36, 109.74, 48.66, 0.00, 0.000, 0.000, 0.000, 16:33:24.093, 1680381204093
199, 547.60, 383.98, 347.84, 0.00, 0.000, 0.000, 0.000, 16:33:24.093, 1680381204093
200, -401.73, -227.44, -225.97, 0.00, 0.000, 0.000, 0.000, 16:33:24.093, 1680381204093
0, -303.66, -104.33, -146.59, 0.00, 0.000, 0.000, 0.000, 16:33:24.094, 1680381204094
1, 613.55, 465.91, 416.09, 0.00, 0.000, 0.000, 0.000, 16:33:24.124, 1680381204124
2, -145.37, -79.71, -77.44, 0.00, 0.000, 0.000, 0.000, 16:33:24.124, 1680381204124
3, -473.55, -228.53, -237.95, 0.00, 0.000, 0.000, 0.000, 16:33:24.124, 1680381204124
4, 381.29, 344.39, 298.54, 0.00, 0.000, 0.000, 0.000, 16:33:24.124, 1680381204124
5, 225.51, 159.23, 160.48, 0.00, 0.000, 0.000, 0.000, 16:33:24.131, 1680381204131
6, -508.80, -270.39, -259.25, 0.00, 0.000, 0.000, 0.000, 16:33:24.131, 1680381204131
7, 10.41, 111.69, 63.48, 0.00, 0.000, 0.000, 0.000, 16:33:24.154, 1680381204154
8, 535.90, 380.87, 349.89, 0.00, 0.000, 0.000, 0.000, 16:33:24.154, 1680381204154
9, -417.25, -233.44, -225.44, 0.00, 0.000, 0.000, 0.000, 16:33:24.154, 1680381204154
10, -315.73, -108.78, -144.81, 0.00, 0.000, 0.000, 0.000, 16:33:24.154, 1680381204154
11, 608.99, 458.10, 408.64, 0.00, 0.000, 0.000, 0.000, 16:33:24.154, 1680381204154
12, -142.91, -85.75, -82.40, 0.00, 0.000, 0.000, 0.000, 16:33:24.154, 1680381204154
13, -482.91, -239.94, -253.57, 0.00, 0.000, 0.000, 0.000, 16:33:24.183, 1680381204183
14, 369.88, 337.18, 279.66, 0.00, 0.000, 0.000, 0.000, 16:33:24.183, 1680381204183
15, 229.96, 155.31, 148.74, 0.00, 0.000, 0.000, 0.000, 16:33:24.183, 1680381204183
16, -513.01, -273.20, -266.92, 0.00, 0.000, 0.000, 0.000, 16:33:24.183, 1680381204183
17, 6.26, 102.74, 54.34, 0.00, 0.000, 0.000, 0.000, 16:33:24.184, 1680381204184
18, 540.60, 381.54, 348.37, 0.00, 0.000, 0.000, 0.000, 16:33:24.184, 1680381204184
19, -414.86, -228.89, -228.38, 0.00, 0.000, 0.000, 0.000, 16:33:24.213, 1680381204213
20, -310.51, -106.47, -144.54, 0.00, 0.000, 0.000, 0.000, 16:33:24.213, 1680381204213
21, 611.72, 462.34, 419.30, 0.00, 0.000, 0.000, 0.000, 16:33:24.213, 1680381204213
22, -143.14, -83.34, -68.25, 0.00, 0.000, 0.000, 0.000, 16:33:24.213, 1680381204213
23, -484.07, -238.67, -234.77, 0.00, 0.000, 0.000, 0.000, 16:33:24.214, 1680381204214
24, 370.27, 340.10, 281.90, 0.00, 0.000, 0.000, 0.000, 16:33:24.214, 1680381204214
25, 229.78, 163.06, 147.57, 0.00, 0.000, 0.000, 0.000, 16:33:24.242, 1680381204242
26, -515.67, -274.37, -280.40, 0.00, 0.000, 0.000, 0.000, 16:33:24.242, 1680381204242
27, -1.15, 105.75, 42.39, 0.00, 0.000, 0.000, 0.000, 16:33:24.243, 1680381204243
28, 544.67, 383.74, 345.62, 0.00, 0.000, 0.000, 0.000, 16:33:24.243, 1680381204243
29, -418.17, -231.60, -232.37, 0.00, 0.000, 0.000, 0.000, 16:33:24.244, 1680381204244
30, -328.18, -118.58, -165.84, 0.00, 0.000, 0.000, 0.000, 16:33:24.244, 1680381204244
31, 601.79, 457.47, 399.78, 0.00, 0.000, 0.000, 0.000, 16:33:24.273, 1680381204273
32, -154.36, -85.03, -93.27, 0.00, 0.000, 0.000, 0.000, 16:33:24.273, 1680381204273
33, -495.81, -239.87, -259.65, 0.00, 0.000, 0.000, 0.000, 16:33:24.274, 1680381204274
34, 353.10, 326.84, 273.43, 0.00, 0.000, 0.000, 0.000, 16:33:24.274, 1680381204274
35, 219.69, 153.21, 141.67, 0.00, 0.000, 0.000, 0.000, 16:33:24.274, 1680381204274
36, -525.83, -283.65, -278.22, 0.00, 0.000, 0.000, 0.000, 16:33:24.274, 1680381204274
37, -15.25, 95.13, 43.30, 0.00, 0.000, 0.000, 0.000, 16:33:24.302, 1680381204302
38, 532.48, 383.94, 345.01, 0.00, 0.000, 0.000, 0.000, 16:33:24.302, 1680381204302
39, -419.10, -232.95, -234.44, 0.00, 0.000, 0.000, 0.000, 16:33:24.303, 1680381204303
40, -337.54, -118.28, -166.38, 0.00, 0.000, 0.000, 0.000, 16:33:24.303, 1680381204303
41, 588.48, 456.65, 398.49, 0.00, 0.000, 0.000, 0.000, 16:33:24.304, 1680381204304
42, -150.65, -81.17, -75.79, 0.00, 0.000, 0.000, 0.000, 16:33:24.304, 1680381204304
43, -492.02, -242.17, -249.76, 0.00, 0.000, 0.000, 0.000, 16:33:24.333, 1680381204333
44, 357.10, 329.65, 264.66, 0.00, 0.000, 0.000, 0.000, 16:33:24.333, 1680381204333
45, 234.63, 163.04, 146.30, 0.00, 0.000, 0.000, 0.000, 16:33:24.333, 1680381204333
46, -517.23, -280.19, -275.77, 0.00, 0.000, 0.000, 0.000, 16:33:24.333, 1680381204333
47, -10.87, 97.16, 37.48, 0.00, 0.000, 0.000, 0.000, 16:33:24.334, 1680381204334
48, 545.43, 384.08, 351.98, 0.00, 0.000, 0.000, 0.000, 16:33:24.334, 1680381204334
49, -409.18, -228.64, -219.54, 0.00, 0.000, 0.000, 0.000, 16:33:24.363, 1680381204363
50, -325.29, -113.97, -156.21, 0.00, 0.000, 0.000, 0.000, 16:33:24.363, 1680381204363
51, 600.27, 461.98, 408.22, 0.00, 0.000, 0.000, 0.000, 16:33:24.363, 1680381204363
52, -137.79, -72.30, -78.37, 0.00, 0.000, 0.000, 0.000, 16:33:24.363, 1680381204363
53, -487.88, -234.01, -256.60, 0.00, 0.000, 0.000, 0.000, 16:33:24.364, 1680381204364
54, 354.58, 332.12, 271.88, 0.00, 0.000, 0.000, 0.000, 16:33:24.364, 1680381204364
55, 234.59, 167.18, 149.80, 0.00, 0.000, 0.000, 0.000, 16:33:24.393, 1680381204393
56, -511.10, -271.60, -264.60, 0.00, 0.000, 0.000, 0.000, 16:33:24.393, 1680381204393
57, -17.20, 101.48, 38.90, 0.00, 0.000, 0.000, 0.000, 16:33:24.393, 1680381204393
58, 543.66, 391.74, 355.74, 0.00, 0.000, 0.000, 0.000, 16:33:24.393, 1680381204393
59, -409.82, -228.20, -219.23, 0.00, 0.000, 0.000, 0.000, 16:33:24.394, 1680381204394
60, -329.79, -121.67, -161.28, 0.00, 0.000, 0.000, 0.000, 16:33:24.394, 1680381204394
61, 592.94, 460.77, 405.74, 0.00, 0.000, 0.000, 0.000, 16:33:24.423, 1680381204423
62, -142.90, -77.88, -74.49, 0.00, 0.000, 0.000, 0.000, 16:33:24.423, 1680381204423
63, -487.34, -239.95, -257.20, 0.00, 0.000, 0.000, 0.000, 16:33:24.423, 1680381204423
64, 349.19, 324.51, 266.00, 0.00, 0.000, 0.000, 0.000, 16:33:24.423, 1680381204423
65, 237.65, 165.49, 152.93, 0.00, 0.000, 0.000, 0.000, 16:33:24.424, 1680381204424
66, -516.50, -275.25, -271.36, 0.00, 0.000, 0.000, 0.000, 16:33:24.424, 1680381204424
67, -21.56, 90.67, 34.02, 0.00, 0.000, 0.000, 0.000, 16:33:24.452, 1680381204452
68, 548.07, 391.13, 352.56, 0.00, 0.000, 0.000, 0.000, 16:33:24.452, 1680381204452
69, -407.76, -228.28, -225.91, 0.00, 0.000, 0.000, 0.000, 16:33:24.453, 1680381204453
70, -338.42, -115.83, -159.46, 0.00, 0.000, 0.000, 0.000, 16:33:24.453, 1680381204453
71, 598.56, 459.56, 407.51, 0.00, 0.000, 0.000, 0.000, 16:33:24.454, 1680381204454
72, -130.12, -72.46, -71.58, 0.00, 0.000, 0.000, 0.000, 16:33:24.454, 1680381204454
73, -487.89, -233.14, -251.55, 0.00, 0.000, 0.000, 0.000, 16:33:24.482, 1680381204482
74, 344.83, 326.87, 261.63, 0.00, 0.000, 0.000, 0.000, 16:33:24.482, 1680381204482
75, 246.27, 173.93, 159.46, 0.00, 0.000, 0.000, 0.000, 16:33:24.483, 1680381204483
76, -511.84, -274.80, -269.47, 0.00, 0.000, 0.000, 0.000, 16:33:24.483, 1680381204483
77, -27.84, 88.61, 30.30, 0.00, 0.000, 0.000, 0.000, 16:33:24.484, 1680381204484
78, 540.90, 390.82, 354.97, 0.00, 0.000, 0.000, 0.000, 16:33:24.484, 1680381204484
79, -405.65, -223.79, -223.36, 0.00, 0.000, 0.000, 0.000, 16:33:24.513, 1680381204513
80, -335.96, -119.99, -160.26, 0.00, 0.000, 0.000, 0.000, 16:33:24.513, 1680381204513
81, 589.98, 460.54, 404.17, 0.00, 0.000, 0.000, 0.000, 16:33:24.513, 1680381204513
82, -134.54, -68.79, -71.21, 0.00, 0.000, 0.000, 0.000, 16:33:24.513, 1680381204513
83, -496.58, -239.28, -259.12, 0.00, 0.000, 0.000, 0.000, 16:33:24.514, 1680381204514
84, 349.87, 325.89, 260.78, 0.00, 0.000, 0.000, 0.000, 16:33:24.514, 1680381204514
85, 248.97, 177.42, 164.62, 0.00, 0.000, 0.000, 0.000, 16:33:24.542, 1680381204542
86, -507.88, -271.60, -271.32, 0.00, 0.000, 0.000, 0.000, 16:33:24.542, 1680381204542
87, -24.69, 94.47, 34.33, 0.00, 0.000, 0.000, 0.000, 16:33:24.544, 1680381204544
88, 549.16, 396.99, 357.53, 0.00, 0.000, 0.000, 0.000, 16:33:24.544, 1680381204544
89, -395.99, -221.17, -212.41, 0.00, 0.000, 0.000, 0.000, 16:33:24.544, 1680381204544
90, -329.81, -115.22, -147.98, 0.00, 0.000, 0.000, 0.000, 16:33:24.544, 1680381204544
91, 604.60, 457.93, 412.59, 0.00, 0.000, 0.000, 0.000, 16:33:24.573, 1680381204573
92, -117.14, -67.59, -62.03, 0.00, 0.000, 0.000, 0.000, 16:33:24.573, 1680381204573
93, -481.62, -233.95, -251.22, 0.00, 0.000, 0.000, 0.000, 16:33:24.573, 1680381204573
94, 345.09, 321.63, 263.40, 0.00, 0.000, 0.000, 0.000, 16:33:24.573, 1680381204573
95, 249.13, 180.07, 162.24, 0.00, 0.000, 0.000, 0.000, 16:33:24.574, 1680381204574
96, -514.91, -274.28, -278.80, 0.00, 0.000, 0.000, 0.000, 16:33:24.574, 1680381204574
97, -46.39, 79.91, 20.07, 0.00, 0.000, 0.000, 0.000, 16:33:24.603, 1680381204603
98, 539.44, 395.29, 352.38, 0.00, 0.000, 0.000, 0.000, 16:33:24.603, 1680381204603
99, -415.96, -233.23, -228.33, 0.00, 0.000, 0.000, 0.000, 16:33:24.603, 1680381204603
100, -349.26, -133.02, -168.01, 0.00, 0.000, 0.000, 0.000, 16:33:24.603, 1680381204603
101, 585.34, 452.41, 404.47, 0.00, 0.000, 0.000, 0.000, 16:33:24.604, 1680381204604
102, -120.04, -66.90, -51.56, 0.00, 0.000, 0.000, 0.000, 16:33:24.604, 1680381204604
103, -489.42, -243.50, -251.78, 0.00, 0.000, 0.000, 0.000, 16:33:24.633, 1680381204633
104, 349.67, 329.59, 262.51, 0.00, 0.000, 0.000, 0.000, 16:33:24.633, 1680381204633
105, 254.90, 195.41, 153.95, 0.00, 0.000, 0.000, 0.000, 16:33:24.633, 1680381204633
106, -528.45, -253.22, -290.74, 0.00, 0.000, 0.000, 0.000, 16:33:24.633, 1680381204633
107, -54.91, 107.45, -1.01, 0.00, 0.000, 0.000, 0.000, 16:33:24.634, 1680381204634
108, 525.11, 391.87, 332.05, 0.00, 0.000, 0.000, 0.000, 16:33:24.634, 1680381204634
109, -436.47, -259.40, -241.97, 0.00, 0.000, 0.000, 0.000, 16:33:24.662, 1680381204662
110, -369.65, -164.92, -179.29, 0.00, 0.000, 0.000, 0.000, 16:33:24.662, 1680381204662
111, 578.59, 422.83, 403.28, 0.00, 0.000, 0.000, 0.000, 16:33:24.663, 1680381204663
112, -115.11, -73.66, -46.88, 0.00, 0.000, 0.000, 0.000, 16:33:24.663, 1680381204663
113, -480.31, -243.36, -238.35, 0.00, 0.000, 0.000, 0.000, 16:33:24.664, 1680381204664
114, 350.52, 315.58, 267.37, 0.00, 0.000, 0.000, 0.000, 16:33:24.664, 1680381204664
115, 271.48, 178.93, 169.10, 0.00, 0.000, 0.000, 0.000, 16:33:24.693, 1680381204693
116, -510.72, -272.55, -275.26, 0.00, 0.000, 0.000, 0.000, 16:33:24.693, 1680381204693
117, -35.04, 85.11, 21.72, 0.00, 0.000, 0.000, 0.000, 16:33:24.693, 1680381204693
118, 547.38, 395.85, 358.41, 0.00, 0.000, 0.000, 0.000, 16:33:24.693, 1680381204693
119, -400.32, -221.81, -222.02, 0.00, 0.000, 0.000, 0.000, 16:33:24.694, 1680381204694
120, -351.04, -131.61, -170.85, 0.00, 0.000, 0.000, 0.000, 16:33:24.694, 1680381204694
121, 584.31, 453.88, 401.72, 0.00, 0.000, 0.000, 0.000, 16:33:24.722, 1680381204722
122, -126.89, -59.63, -62.95, 0.00, 0.000, 0.000, 0.000, 16:33:24.722, 1680381204722
123, -503.23, -249.21, -258.18, 0.00, 0.000, 0.000, 0.000, 16:33:24.724, 1680381204724
124, 326.40, 309.06, 245.96, 0.00, 0.000, 0.000, 0.000, 16:33:24.724, 1680381204724
125, 261.56, 176.41, 163.25, 0.00, 0.000, 0.000, 0.000, 16:33:24.725, 1680381204725
126, -514.30, -281.49, -291.18, 0.00, 0.000, 0.000, 0.000, 16:33:24.725, 1680381204725
127, -43.12, 72.33, 3.99, 0.00, 0.000, 0.000, 0.000, 16:33:24.753, 1680381204753
128, 550.03, 393.50, 345.65, 0.00, 0.000, 0.000, 0.000, 16:33:24.753, 1680381204753
129, -393.78, -222.63, -211.73, 0.00, 0.000, 0.000, 0.000, 16:33:24.754, 1680381204754
130, -349.40, -130.61, -152.05, 0.00, 0.000, 0.000, 0.000, 16:33:24.754, 1680381204754
131, 584.64, 456.08, 433.16, 0.00, 0.000, 0.000, 0.000, 16:33:24.754, 1680381204754
132, -113.01, -54.41, -20.15, 0.00, 0.000, 0.000, 0.000, 16:33:24.754, 1680381204754
133, -494.88, -235.37, -222.83, 0.00, 0.000, 0.000, 0.000, 16:33:24.784, 1680381204784
134, 329.59, 319.39, 265.07, 0.00, 0.000, 0.000, 0.000, 16:33:24.784, 1680381204784
135, 266.13, 187.52, 154.89, 0.00, 0.000, 0.000, 0.000, 16:33:24.784, 1680381204784
136, -505.89, -263.74, -288.36, 0.00, 0.000, 0.000, 0.000, 16:33:24.784, 1680381204784
137, -36.88, 81.69, -4.41, 0.00, 0.000, 0.000, 0.000, 16:33:24.785, 1680381204785
138, 566.78, 404.15, 341.35, 0.00, 0.000, 0.000, 0.000, 16:33:24.785, 1680381204785
139, -385.20, -219.38, -224.98, 0.00, 0.000, 0.000, 0.000, 16:33:24.813, 1680381204813
140, -344.87, -130.64, -166.53, 0.00, 0.000, 0.000, 0.000, 16:33:24.813, 1680381204813
141, 596.21, 462.50, 416.41, 0.00, 0.000, 0.000, 0.000, 16:33:24.814, 1680381204814
142, -108.63, -52.87, -44.29, 0.00, 0.000, 0.000, 0.000, 16:33:24.814, 1680381204814
143, -495.84, -246.47, -244.08, 0.00, 0.000, 0.000, 0.000, 16:33:24.814, 1680381204814
144, 324.91, 310.24, 254.61, 0.00, 0.000, 0.000, 0.000, 16:33:24.814, 1680381204814
145, 263.19, 187.46, 172.73, 0.00, 0.000, 0.000, 0.000, 16:33:24.843, 1680381204843
146, -512.36, -272.74, -272.81, 0.00, 0.000, 0.000, 0.000, 16:33:24.843, 1680381204843
147, -49.06, 79.53, 13.54, 0.00, 0.000, 0.000, 0.000, 16:33:24.843, 1680381204843
148, 559.83, 403.78, 358.23, 0.00, 0.000, 0.000, 0.000, 16:33:24.843, 1680381204843
149, -392.95, -212.95, -223.40, 0.00, 0.000, 0.000, 0.000, 16:33:24.844, 1680381204844
150, -352.37, -124.67, -176.75, 0.00, 0.000, 0.000, 0.000, 16:33:24.844, 1680381204844
151, 592.82, 463.22, 400.15, 0.00, 0.000, 0.000, 0.000, 16:33:24.873, 1680381204873
152, -96.03, -48.23, -46.13, 0.00, 0.000, 0.000, 0.000, 16:33:24.873, 1680381204873
153, -489.33, -235.60, -244.10, 0.00, 0.000, 0.000, 0.000, 16:33:24.873, 1680381204873
154, 328.38, 317.80, 264.27, 0.00, 0.000, 0.000, 0.000, 16:33:24.873, 1680381204873
155, 274.17, 199.32, 181.77, 0.00, 0.000, 0.000, 0.000, 16:33:24.874, 1680381204874
156, -504.26, -269.29, -267.91, 0.00, 0.000, 0.000, 0.000, 16:33:24.874, 1680381204874
157, -47.39, 79.04, 17.58, 0.00, 0.000, 0.000, 0.000, 16:33:24.903, 1680381204903
158, 568.90, 412.18, 367.84, 0.00, 0.000, 0.000, 0.000, 16:33:24.903, 1680381204903
159, -387.96, -218.84, -218.74, 0.00, 0.000, 0.000, 0.000, 16:33:24.903, 1680381204903
160, -348.62, -131.37, -176.43, 0.00, 0.000, 0.000, 0.000, 16:33:24.903, 1680381204903
161, 590.50, 454.56, 401.88, 0.00, 0.000, 0.000, 0.000, 16:33:24.911, 1680381204911
162, -105.71, -55.26, -54.41, 0.00, 0.000, 0.000, 0.000, 16:33:24.911, 1680381204911
163, -495.97, -244.33, -257.81, 0.00, 0.000, 0.000, 0.000, 16:33:24.932, 1680381204932
164, 317.45, 305.89, 246.62, 0.00, 0.000, 0.000, 0.000, 16:33:24.932, 1680381204932
165, 267.65, 190.40, 178.65, 0.00, 0.000, 0.000, 0.000, 16:33:24.934, 1680381204934
166, -513.70, -271.37, -271.23, 0.00, 0.000, 0.000, 0.000, 16:33:24.934, 1680381204934
167, -50.45, 68.14, 18.94, 0.00, 0.000, 0.000, 0.000, 16:33:24.934, 1680381204934
168, 563.00, 399.09, 367.76, 0.00, 0.000, 0.000, 0.000, 16:33:24.934, 1680381204934
169, -388.58, -225.13, -211.82, 0.00, 0.000, 0.000, 0.000, 16:33:24.962, 1680381204962
170, -358.25, -141.41, -171.01, 0.00, 0.000, 0.000, 0.000, 16:33:24.962, 1680381204962
171, 578.12, 446.41, 397.08, 0.00, 0.000, 0.000, 0.000, 16:33:24.963, 1680381204963
172, -108.90, -55.00, -56.94, 0.00, 0.000, 0.000, 0.000, 16:33:24.963, 1680381204963
173, -502.84, -248.78, -264.03, 0.00, 0.000, 0.000, 0.000, 16:33:24.964, 1680381204964
174, 318.95, 302.85, 241.72, 0.00, 0.000, 0.000, 0.000, 16:33:24.964, 1680381204964
175, 276.02, 191.10, 170.46, 0.00, 0.000, 0.000, 0.000, 16:33:24.993, 1680381204993
176, -519.08, -283.42, -287.18, 0.00, 0.000, 0.000, 0.000, 16:33:24.993, 1680381204993
177, -70.48, 59.80, -2.42, 0.00, 0.000, 0.000, 0.000, 16:33:24.994, 1680381204994
178, 547.72, 393.72, 356.22, 0.00, 0.000, 0.000, 0.000, 16:33:24.994, 1680381204994
179, -401.67, -225.42, -221.70, 0.00, 0.000, 0.000, 0.000, 16:33:24.995, 1680381204995
180, -366.05, -143.57, -180.47, 0.00, 0.000, 0.000, 0.000, 16:33:24.995, 1680381204995
181, 571.58, 450.57, 408.74, 0.00, 0.000, 0.000, 0.000, 16:33:25.023, 1680381205023
182, -101.18, -50.61, -36.16, 0.00, 0.000, 0.000, 0.000, 16:33:25.023, 1680381205023
183, -500.33, -248.74, -248.58, 0.00, 0.000, 0.000, 0.000, 16:33:25.024, 1680381205024
184, 309.56, 308.01, 245.12, 0.00, 0.000, 0.000, 0.000, 16:33:25.024, 1680381205024
185, 279.18, 200.85, 172.12, 0.00, 0.000, 0.000, 0.000, 16:33:25.025, 1680381205025
186, -507.88, -267.47, -272.43, 0.00, 0.000, 0.000, 0.000, 16:33:25.025, 1680381205025
187, -57.65, 74.82, 9.60, 0.00, 0.000, 0.000, 0.000, 16:33:25.053, 1680381205053
188, 570.25, 411.97, 364.65, 0.00, 0.000, 0.000, 0.000, 16:33:25.053, 1680381205053
189, -371.50, -211.27, -213.81, 0.00, 0.000, 0.000, 0.000, 16:33:25.053, 1680381205053
190, -356.85, -141.73, -177.67, 0.00, 0.000, 0.000, 0.000, 16:33:25.053, 1680381205053
191, 575.52, 448.44, 391.95, 0.00, 0.000, 0.000, 0.000, 16:33:25.054, 1680381205054
192, -95.58, -47.30, -50.10, 0.00, 0.000, 0.000, 0.000, 16:33:25.054, 1680381205054
193, -510.04, -251.49, -260.49, 0.00, 0.000, 0.000, 0.000, 16:33:25.082, 1680381205082
194, 303.51, 294.32, 242.61, 0.00, 0.000, 0.000, 0.000, 16:33:25.082, 1680381205082
195, 280.00, 198.87, 175.52, 0.00, 0.000, 0.000, 0.000, 16:33:25.083, 1680381205083
196, -516.96, -277.06, -275.62, 0.00, 0.000, 0.000, 0.000, 16:33:25.083, 1680381205083
197, -71.00, 62.73, -3.16, 0.00, 0.000, 0.000, 0.000, 16:33:25.084, 1680381205084
198, 551.76, 399.42, 358.13, 0.00, 0.000, 0.000, 0.000, 16:33:25.084, 1680381205084
199, -393.48, -221.64, -212.66, 0.00, 0.000, 0.000, 0.000, 16:33:25.112, 1680381205112
200, -363.38, -139.56, -179.98, 0.00, 0.000, 0.000, 0.000, 16:33:25.112, 1680381205112
0, 569.80, 455.95, 393.95, 0.00, 0.000, 0.000, 0.000, 16:33:25.113, 1680381205113
1, -92.78, -44.51, -46.08, 0.00, 0.000, 0.000, 0.000, 16:33:25.114, 1680381205114
2, -496.93, -247.61, -260.77, 0.00, 0.000, 0.000, 0.000, 16:33:25.114, 1680381205114
3, 307.08, 304.49, 238.59, 0.00, 0.000, 0.000, 0.000, 16:33:25.115, 1680381205115
4, 294.10, 207.21, 187.00, 0.00, 0.000, 0.000, 0.000, 16:33:25.115, 1680381205115
5, -505.65, -264.12, -269.27, 0.00, 0.000, 0.000, 0.000, 16:33:25.144, 1680381205144
6, -64.10, 62.93, 4.60, 0.00, 0.000, 0.000, 0.000, 16:33:25.144, 1680381205144
7, 574.01, 413.34, 373.90, 0.00, 0.000, 0.000, 0.000, 16:33:25.144, 1680381205144
8, -371.44, -209.37, -206.98, 0.00, 0.000, 0.000, 0.000, 16:33:25.145, 1680381205145
9, -349.70, -136.43, -171.32, 0.00, 0.000, 0.000, 0.000, 16:33:25.174, 1680381205174
10, 587.64, 455.10, 406.54, 0.00, 0.000, 0.000, 0.000, 16:33:25.174, 1680381205174
11, -77.76, -39.33, -41.90, 0.00, 0.000, 0.000, 0.000, 16:33:25.176, 1680381205176
12, -485.67, -238.16, -247.21, 0.00, 0.000, 0.000, 0.000, 16:33:25.176, 1680381205176
13, 310.59, 305.25, 241.91, 0.00, 0.000, 0.000, 0.000, 16:33:25.177, 1680381205177
14, 298.54, 210.45, 183.80, 0.00, 0.000, 0.000, 0.000, 16:33:25.177, 1680381205177
15, -498.19, -262.11, -261.61, 0.00, 0.000, 0.000, 0.000, 16:33:25.177, 1680381205177
16, -61.38, 66.29, 12.07, 0.00, 0.000, 0.000, 0.000, 16:33:25.177, 1680381205177
17, 573.04, 416.56, 376.61, 0.00, 0.000, 0.000, 0.000, 16:33:25.203, 1680381205203
18, -368.05, -205.13, -197.74, 0.00, 0.000, 0.000, 0.000, 16:33:25.203, 1680381205203
19, -359.75, -137.96, -174.64, 0.00, 0.000, 0.000, 0.000, 16:33:25.203, 1680381205203
20, 580.79, 449.73, 400.22, 0.00, 0.000, 0.000, 0.000, 16:33:25.203, 1680381205203
21, -72.16, -38.33, -45.27, 0.00, 0.000, 0.000, 0.000, 16:33:25.233, 1680381205233
22, -496.22, -249.76, -258.13, 0.00, 0.000, 0.000, 0.000, 16:33:25.233, 1680381205233
23, 291.57, 295.57, 226.96, 0.00, 0.000, 0.000, 0.000, 16:33:25.233, 1680381205233
24, 288.75, 204.69, 182.03, 0.00, 0.000, 0.000, 0.000, 16:33:25.233, 1680381205233
25, -505.50, -271.63, -273.12, 0.00, 0.000, 0.000, 0.000, 16:33:25.234, 1680381205234
26, -75.91, 57.88, 5.60, 0.00, 0.000, 0.000, 0.000, 16:33:25.234, 1680381205234
27, 573.67, 414.06, 375.05, 0.00, 0.000, 0.000, 0.000, 16:33:25.235, 1680381205235
28, -377.61, -212.88, -215.29, 0.00, 0.000, 0.000, 0.000, 16:33:25.235, 1680381205235
29, -373.05, -147.82, -187.87, 0.00, 0.000, 0.000, 0.000, 16:33:25.263, 1680381205263
30, 564.78, 435.67, 387.55, 0.00, 0.000, 0.000, 0.000, 16:33:25.263, 1680381205263
31, -97.56, -46.69, -50.67, 0.00, 0.000, 0.000, 0.000, 16:33:25.263, 1680381205263
32, -523.99, -260.16, -276.92, 0.00, 0.000, 0.000, 0.000, 16:33:25.263, 1680381205263
33, 267.15, 284.11, 214.05, 0.00, 0.000, 0.000, 0.000, 16:33:25.293, 1680381205293
34, 273.70, 197.57, 176.59, 0.00, 0.000, 0.000, 0.000, 16:33:25.293, 1680381205293
35, -522.19, -274.26, -271.76, 0.00, 0.000, 0.000, 0.000, 16:33:25.293, 1680381205293
36, -86.10, 51.58, -2.87, 0.00, 0.000, 0.000, 0.000, 16:33:25.293, 1680381205293
37, 570.16, 410.13, 375.00, 0.00, 0.000, 0.000, 0.000, 16:33:25.294, 1680381205294
38, -377.81, -206.82, -208.26, 0.00, 0.000, 0.000, 0.000, 16:33:25.294, 1680381205294
39, -368.66, -143.10, -177.42, 0.00, 0.000, 0.000, 0.000, 16:33:25.296, 1680381205296
40, 566.98, 445.53, 391.82, 0.00, 0.000, 0.000, 0.000, 16:33:25.296, 1680381205296
41, -82.42, -36.33, -38.69, 0.00, 0.000, 0.000, 0.000, 16:33:25.322, 1680381205322
42, -494.57, -239.01, -248.50, 0.00, 0.000, 0.000, 0.000, 16:33:25.322, 1680381205322
43, 305.09, 298.59, 242.53, 0.00, 0.000, 0.000, 0.000, 16:33:25.323, 1680381205323
44, 311.54, 216.70, 201.08, 0.00, 0.000, 0.000, 0.000, 16:33:25.323, 1680381205323
45, -498.17, -264.16, -261.56, 0.00, 0.000, 0.000, 0.000, 16:33:25.352, 1680381205352
46, -69.01, 63.63, 10.75, 0.00, 0.000, 0.000, 0.000, 16:33:25.352, 1680381205352
47, 576.66, 417.64, 374.45, 0.00, 0.000, 0.000, 0.000, 16:33:25.353, 1680381205353
48, -362.44, -203.90, -194.36, 0.00, 0.000, 0.000, 0.000, 16:33:25.353, 1680381205353
49, -361.25, -138.92, -176.48, 0.00, 0.000, 0.000, 0.000, 16:33:25.354, 1680381205354
50, 570.24, 443.57, 399.59, 0.00, 0.000, 0.000, 0.000, 16:33:25.354, 1680381205354
51, -69.63, -33.11, -36.69, 0.00, 0.000, 0.000, 0.000, 16:33:25.355, 1680381205355
52, -493.82, -245.72, -254.33, 0.00, 0.000, 0.000, 0.000, 16:33:25.355, 1680381205355
53, 291.58, 286.72, 233.84, 0.00, 0.000, 0.000, 0.000, 16:33:25.383, 1680381205383
54, 301.13, 213.53, 193.94, 0.00, 0.000, 0.000, 0.000, 16:33:25.383, 1680381205383
55, -494.78, -267.38, -265.08, 0.00, 0.000, 0.000, 0.000, 16:33:25.383, 1680381205383
56, -76.80, 50.85, -1.29, 0.00, 0.000, 0.000, 0.000, 16:33:25.383, 1680381205383
57, 571.54, 409.87, 378.65, 0.00, 0.000, 0.000, 0.000, 16:33:25.413, 1680381205413
58, -361.79, -200.67, -197.72, 0.00, 0.000, 0.000, 0.000, 16:33:25.413, 1680381205413
59, -358.67, -136.65, -172.98, 0.00, 0.000, 0.000, 0.000, 16:33:25.413, 1680381205413
60, 580.51, 448.06, 402.25, 0.00, 0.000, 0.000, 0.000, 16:33:25.413, 1680381205413
61, -65.77, -14.70, -25.23, 0.00, 0.000, 0.000, 0.000, 16:33:25.414, 1680381205414
62, -500.93, -232.59, -267.99, 0.00, 0.000, 0.000, 0.000, 16:33:25.414, 1680381205414
63, 272.75, 308.15, 197.29, 0.00, 0.000, 0.000, 0.000, 16:33:25.421, 1680381205421
64, 288.58, 229.88, 161.66, 0.00, 0.000, 0.000, 0.000, 16:33:25.421, 1680381205421
65, -531.19, -268.01, -292.93, 0.00, 0.000, 0.000, 0.000, 16:33:25.443, 1680381205443
66, -120.15, 18.67, -26.78, 0.00, 0.000, 0.000, 0.000, 16:33:25.443, 1680381205443
67, 553.88, 381.78, 370.95, 0.00, 0.000, 0.000, 0.000, 16:33:25.443, 1680381205443
68, -370.30, -223.67, -196.27, 0.00, 0.000, 0.000, 0.000, 16:33:25.443, 1680381205443
69, -366.46, -161.98, -172.91, 0.00, 0.000, 0.000, 0.000, 16:33:25.473, 1680381205473
70, 587.85, 444.33, 412.18, 0.00, 0.000, 0.000, 0.000, 16:33:25.473, 1680381205473
71, -40.18, -24.34, -14.95, 0.00, 0.000, 0.000, 0.000, 16:33:25.474, 1680381205474
72, -480.22, -239.90, -240.59, 0.00, 0.000, 0.000, 0.000, 16:33:25.474, 1680381205474
73, 300.65, 294.14, 237.25, 0.00, 0.000, 0.000, 0.000, 16:33:25.475, 1680381205475
74, 318.47, 222.48, 204.29, 0.00, 0.000, 0.000, 0.000, 16:33:25.475, 1680381205475
75, -489.94, -268.21, -263.55, 0.00, 0.000, 0.000, 0.000, 16:33:25.476, 1680381205476
76, -80.12, 53.96, -7.77, 0.00, 0.000, 0.000, 0.000, 16:33:25.476, 1680381205476
77, 583.62, 424.28, 383.37, 0.00, 0.000, 0.000, 0.000, 16:33:25.502, 1680381205502
78, -364.21, -204.84, -197.28, 0.00, 0.000, 0.000, 0.000, 16:33:25.502, 1680381205502
79, -371.51, -153.80, -183.51, 0.00, 0.000, 0.000, 0.000, 16:33:25.503, 1680381205503
80, 570.83, 449.33, 391.87, 0.00, 0.000, 0.000, 0.000, 16:33:25.503, 1680381205503
81, -58.85, -30.66, -26.92, 0.00, 0.000, 0.000, 0.000, 16:33:25.532, 1680381205532
82, -501.23, -254.35, -263.88, 0.00, 0.000, 0.000, 0.000, 16:33:25.532, 1680381205532
83, 271.07, 276.04, 213.27, 0.00, 0.000, 0.000, 0.000, 16:33:25.533, 1680381205533
84, 314.86, 219.48, 195.13, 0.00, 0.000, 0.000, 0.000, 16:33:25.533, 1680381205533
85, -493.60, -267.91, -269.07, 0.00, 0.000, 0.000, 0.000, 16:33:25.534, 1680381205534
86, -99.20, 43.87, -13.93, 0.00, 0.000, 0.000, 0.000, 16:33:25.534, 1680381205534
87, 577.49, 420.85, 393.76, 0.00, 0.000, 0.000, 0.000, 16:33:25.535, 1680381205535
88, -361.33, -200.11, -181.62, 0.00, 0.000, 0.000, 0.000, 16:33:25.535, 1680381205535
89, -375.50, -151.04, -164.99, 0.00, 0.000, 0.000, 0.000, 16:33:25.562, 1680381205562
90, 556.09, 439.04, 408.23, 0.00, 0.000, 0.000, 0.000, 16:33:25.562, 1680381205562
91, -62.05, -27.00, -18.28, 0.00, 0.000, 0.000, 0.000, 16:33:25.563, 1680381205563
92, -509.22, -256.79, -268.91, 0.00, 0.000, 0.000, 0.000, 16:33:25.563, 1680381205563
93, 260.20, 274.25, 194.26, 0.00, 0.000, 0.000, 0.000, 16:33:25.593, 1680381205593
94, 306.51, 217.09, 171.58, 0.00, 0.000, 0.000, 0.000, 16:33:25.593, 1680381205593
95, -510.58, -280.21, -293.01, 0.00, 0.000, 0.000, 0.000, 16:33:25.593, 1680381205593
96, -107.60, 36.85, -31.32, 0.00, 0.000, 0.000, 0.000, 16:33:25.593, 1680381205593
97, 574.55, 414.54, 372.61, 0.00, 0.000, 0.000, 0.000, 16:33:25.594, 1680381205594
98, -364.23, -202.44, -197.98, 0.00, 0.000, 0.000, 0.000, 16:33:25.594, 1680381205594
99, -390.72, -154.45, -181.94, 0.00, 0.000, 0.000, 0.000, 16:33:25.595, 1680381205595
100, 557.89, 444.12, 403.97, 0.00, 0.000, 0.000, 0.000, 16:33:25.595, 1680381205595
101, -60.86, -23.99, -17.79, 0.00, 0.000, 0.000, 0.000, 16:33:25.623, 1680381205623
102, -514.15, -259.10, -266.40, 0.00, 0.000, 0.000, 0.000, 16:33:25.623, 1680381205623
103, 250.12, 270.14, 208.23, 0.00, 0.000, 0.000, 0.000, 16:33:25.624, 1680381205624
104, 294.96, 214.20, 188.01, 0.00, 0.000, 0.000, 0.000, 16:33:25.624, 1680381205624
105, -516.00, -272.04, -277.06, 0.00, 0.000, 0.000, 0.000, 16:33:25.653, 1680381205653
106, -112.61, 38.76, -27.75, 0.00, 0.000, 0.000, 0.000, 16:33:25.653, 1680381205653
107, 569.35, 416.99, 367.63, 0.00, 0.000, 0.000, 0.000, 16:33:25.653, 1680381205653
108, -360.55, -201.04, -203.46, 0.00, 0.000, 0.000, 0.000, 16:33:25.653, 1680381205653
109, -383.91, -148.85, -191.51, 0.00, 0.000, 0.000, 0.000, 16:33:25.654, 1680381205654
110, 554.17, 446.09, 386.92, 0.00, 0.000, 0.000, 0.000, 16:33:25.654, 1680381205654
111, -51.63, -15.68, -19.95, 0.00, 0.000, 0.000, 0.000, 16:33:25.655, 1680381205655
112, -503.91, -248.21, -257.45, 0.00, 0.000, 0.000, 0.000, 16:33:25.655, 1680381205655
113, 272.20, 277.81, 216.75, 0.00, 0.000, 0.000, 0.000, 16:33:25.683, 1680381205683
114, 318.63, 226.93, 201.76, 0.00, 0.000, 0.000, 0.000, 16:33:25.683, 1680381205683
115, -499.85, -268.26, -267.77, 0.00, 0.000, 0.000, 0.000, 16:33:25.683, 1680381205683
116, -100.66, 38.59, -17.96, 0.00, 0.000, 0.000, 0.000, 16:33:25.683, 1680381205683
117, 573.45, 417.09, 373.16, 0.00, 0.000, 0.000, 0.000, 16:33:25.713, 1680381205713
118, -361.30, -208.09, -209.97, 0.00, 0.000, 0.000, 0.000, 16:33:25.713, 1680381205713
119, -386.83, -159.39, -194.13, 0.00, 0.000, 0.000, 0.000, 16:33:25.714, 1680381205714
120, 553.48, 440.40, 387.92, 0.00, 0.000, 0.000, 0.000, 16:33:25.714, 1680381205714
121, -52.05, -26.14, -16.78, 0.00, 0.000, 0.000, 0.000, 16:33:25.714, 1680381205714
122, -510.87, -251.23, -261.62, 0.00, 0.000, 0.000, 0.000, 16:33:25.714, 1680381205714
123, 264.55, 270.94, 219.06, 0.00, 0.000, 0.000, 0.000, 16:33:25.715, 1680381205715
124, 325.10, 228.86, 215.13, 0.00, 0.000, 0.000, 0.000, 16:33:25.715, 1680381205715
125, -502.76, -271.61, -255.49, 0.00, 0.000, 0.000, 0.000, 16:33:25.742, 1680381205742
126, -104.04, 40.25, -4.36, 0.00, 0.000, 0.000, 0.000, 16:33:25.742, 1680381205742
127, 580.02, 422.62, 387.15, 0.00, 0.000, 0.000, 0.000, 16:33:25.743, 1680381205743
128, -350.76, -200.91, -193.58, 0.00, 0.000, 0.000, 0.000, 16:33:25.743, 1680381205743
129, -376.91, -156.94, -188.88, 0.00, 0.000, 0.000, 0.000, 16:33:25.773, 1680381205773
130, 565.36, 444.69, 391.88, 0.00, 0.000, 0.000, 0.000, 16:33:25.773, 1680381205773
131, -34.35, -7.64, -15.74, 0.00, 0.000, 0.000, 0.000, 16:33:25.773, 1680381205773
132, -498.49, -249.54, -263.37, 0.00, 0.000, 0.000, 0.000, 16:33:25.773, 1680381205773
133, 264.66, 275.37, 214.67, 0.00, 0.000, 0.000, 0.000, 16:33:25.774, 1680381205774
134, 341.11, 237.66, 215.33, 0.00, 0.000, 0.000, 0.000, 16:33:25.774, 1680381205774
135, -490.52, -270.40, -262.70, 0.00, 0.000, 0.000, 0.000, 16:33:25.775, 1680381205775
136, -98.59, 40.03, -15.31, 0.00, 0.000, 0.000, 0.000, 16:33:25.775, 1680381205775
137, 591.36, 429.15, 400.58, 0.00, 0.000, 0.000, 0.000, 16:33:25.804, 1680381205804
138, -340.76, -191.47, -171.00, 0.00, 0.000, 0.000, 0.000, 16:33:25.804, 1680381205804
139, -380.57, -155.62, -168.68, 0.00, 0.000, 0.000, 0.000, 16:33:25.804, 1680381205804
140, 559.93, 440.99, 397.01, 0.00, 0.000, 0.000, 0.000, 16:33:25.804, 1680381205804
141, -41.89, -12.31, -11.87, 0.00, 0.000, 0.000, 0.000, 16:33:25.833, 1680381205833
142, -499.97, -247.08, -271.71, 0.00, 0.000, 0.000, 0.000, 16:33:25.833, 1680381205833
143, 266.78, 278.73, 205.42, 0.00, 0.000, 0.000, 0.000, 16:33:25.833, 1680381205833
144, 336.19, 235.69, 206.41, 0.00, 0.000, 0.000, 0.000, 16:33:25.833, 1680381205833
145, -496.25, -266.38, -271.65, 0.00, 0.000, 0.000, 0.000, 16:33:25.834, 1680381205834
146, -99.62, 42.32, -21.80, 0.00, 0.000, 0.000, 0.000, 16:33:25.834, 1680381205834
147, 592.66, 431.40, 387.25, 0.00, 0.000, 0.000, 0.000, 16:33:25.835, 1680381205835
148, -343.06, -189.53, -181.65, 0.00, 0.000, 0.000, 0.000, 16:33:25.835, 1680381205835
149, -382.92, -157.31, -176.37, 0.00, 0.000, 0.000, 0.000, 16:33:25.863, 1680381205863
150, 560.06, 441.07, 400.17, 0.00, 0.000, 0.000, 0.000, 16:33:25.863, 1680381205863
151, -26.67, -4.95, -3.61, 0.00, 0.000, 0.000, 0.000, 16:33:25.864, 1680381205864
152, -496.83, -248.36, -250.66, 0.00, 0.000, 0.000, 0.000, 16:33:25.864, 1680381205864
153, 260.13, 270.09, 205.56, 0.00, 0.000, 0.000, 0.000, 16:33:25.892, 1680381205892
154, 341.53, 237.08, 208.27, 0.00, 0.000, 0.000, 0.000, 16:33:25.893, 1680381205893
155, -492.07, -265.88, -271.92, 0.00, 0.000, 0.000, 0.000, 16:33:25.893, 1680381205893
156, -113.53, 33.75, -29.77, 0.00, 0.000, 0.000, 0.000, 16:33:25.893, 1680381205893
157, 587.17, 428.07, 388.44, 0.00, 0.000, 0.000, 0.000, 16:33:25.894, 1680381205894
158, -344.87, -191.73, -188.12, 0.00, 0.000, 0.000, 0.000, 16:33:25.894, 1680381205894
159, -382.64, -154.92, -182.91, 0.00, 0.000, 0.000, 0.000, 16:33:25.895, 1680381205895
160, 558.83, 439.76, 391.69, 0.00, 0.000, 0.000, 0.000, 16:33:25.895, 1680381205895
161, -33.61, -11.12, -13.16, 0.00, 0.000, 0.000, 0.000, 16:33:25.922, 1680381205922
162, -499.53, -252.73, -257.36, 0.00, 0.000, 0.000, 0.000, 16:33:25.922, 1680381205922
163, 252.40, 264.56, 208.10, 0.00, 0.000, 0.000, 0.000, 16:33:25.923, 1680381205923
164, 338.92, 235.55, 219.06, 0.00, 0.000, 0.000, 0.000, 16:33:25.923, 1680381205923
165, -496.35, -270.05, -266.51, 0.00, 0.000, 0.000, 0.000, 16:33:25.953, 1680381205953
166, -120.60, 23.50, -29.58, 0.00, 0.000, 0.000, 0.000, 16:33:25.953, 1680381205953
167, 579.38, 411.74, 373.29, 0.00, 0.000, 0.000, 0.000, 16:33:25.953, 1680381205953
168, -360.79, -199.73, -201.90, 0.00, 0.000, 0.000, 0.000, 16:33:25.953, 1680381205953
169, -401.32, -166.71, -205.47, 0.00, 0.000, 0.000, 0.000, 16:33:25.954, 1680381205954
170, 537.61, 430.73, 383.05, 0.00, 0.000, 0.000, 0.000, 16:33:25.954, 1680381205954
171, -43.41, -6.88, -13.36, 0.00, 0.000, 0.000, 0.000, 16:33:25.955, 1680381205955
172, -513.77, -256.45, -258.44, 0.00, 0.000, 0.000, 0.000, 16:33:25.955, 1680381205955
173, 240.25, 262.90, 205.48, 0.00, 0.000, 0.000, 0.000, 16:33:25.983, 1680381205983
174, 334.23, 238.43, 219.91, 0.00, 0.000, 0.000, 0.000, 16:33:25.983, 1680381205983
175, -495.58, -265.03, -264.50, 0.00, 0.000, 0.000, 0.000, 16:33:25.984, 1680381205984
176, -126.97, 21.63, -27.86, 0.00, 0.000, 0.000, 0.000, 16:33:25.984, 1680381205984
177, 584.55, 425.80, 384.74, 0.00, 0.000, 0.000, 0.000, 16:33:26.014, 1680381206014
178, -342.88, -196.82, -190.56, 0.00, 0.000, 0.000, 0.000, 16:33:26.014, 1680381206014
179, -400.78, -166.41, -203.23, 0.00, 0.000, 0.000, 0.000, 16:33:26.015, 1680381206015
180, 540.17, 431.91, 374.96, 0.00, 0.000, 0.000, 0.000, 16:33:26.015, 1680381206015
181, -24.99, -6.90, -12.63, 0.00, 0.000, 0.000, 0.000, 16:33:26.015, 1680381206015
182, -507.80, -253.39, -266.99, 0.00, 0.000, 0.000, 0.000, 16:33:26.015, 1680381206015
183, 240.92, 262.53, 197.62, 0.00, 0.000, 0.000, 0.000, 16:33:26.016, 1680381206016
184, 340.11, 238.94, 219.19, 0.00, 0.000, 0.000, 0.000, 16:33:26.016, 1680381206016
185, -493.23, -265.27, -261.96, 0.00, 0.000, 0.000, 0.000, 16:33:26.043, 1680381206043
186, -125.43, 22.32, -28.06, 0.00, 0.000, 0.000, 0.000, 16:33:26.043, 1680381206043
187, 586.02, 423.79, 381.38, 0.00, 0.000, 0.000, 0.000, 16:33:26.043, 1680381206043
188, -341.79, -195.06, -192.05, 0.00, 0.000, 0.000, 0.000, 16:33:26.043, 1680381206043
189, -399.56, -166.59, -200.04, 0.00, 0.000, 0.000, 0.000, 16:33:26.073, 1680381206073
190, 546.70, 439.34, 382.36, 0.00, 0.000, 0.000, 0.000, 16:33:26.073, 1680381206073
191, -18.98, 0.33, -2.12, 0.00, 0.000, 0.000, 0.000, 16:33:26.073, 1680381206073
192, -504.87, -252.86, -264.99, 0.00, 0.000, 0.000, 0.000, 16:33:26.073, 1680381206073
193, 236.61, 259.98, 194.30, 0.00, 0.000, 0.000, 0.000, 16:33:26.074, 1680381206074
194, 348.75, 248.52, 224.99, 0.00, 0.000, 0.000, 0.000, 16:33:26.074, 1680381206074
195, -489.87, -261.81, -264.76, 0.00, 0.000, 0.000, 0.000, 16:33:26.075, 1680381206075
196, -131.39, 26.66, -28.08, 0.00, 0.000, 0.000, 0.000, 16:33:26.075, 1680381206075
197, 589.74, 430.40, 393.95, 0.00, 0.000, 0.000, 0.000, 16:33:26.102, 1680381206102
198, -333.02, -185.52, -180.02, 0.00, 0.000, 0.000, 0.000, 16:33:26.102, 1680381206102
199, -385.73, -156.17, -191.87, 0.00, 0.000, 0.000, 0.000, 16:33:26.103, 1680381206103
200, 556.66, 451.01, 394.66, 0.00, 0.000, 0.000, 0.000, 16:33:26.103, 1680381206103
0, -12.44, 10.46, 4.25, 0.00, 0.000, 0.000, 0.000, 16:33:26.104, 1680381206104
1, -500.04, -251.80, -256.88, 0.00, 0.000, 0.000, 0.000, 16:33:26.133, 1680381206133
2, 249.40, 265.87, 203.98, 0.00, 0.000, 0.000, 0.000, 16:33:26.133, 1680381206133
3, 366.85, 256.87, 246.54, 0.00, 0.000, 0.000, 0.000, 16:33:26.133, 1680381206133
4, -474.84, -254.11, -247.17, 0.00, 0.000, 0.000, 0.000, 16:33:26.133, 1680381206133
5, -108.69, 34.70, -12.75, 0.00, 0.000, 0.000, 0.000, 16:33:26.134, 1680381206134
6, 615.84, 445.11, 409.81, 0.00, 0.000, 0.000, 0.000, 16:33:26.134, 1680381206134
7, -317.93, -180.33, -171.32, 0.00, 0.000, 0.000, 0.000, 16:33:26.163, 1680381206163
8, -380.37, -160.57, -189.66, 0.00, 0.000, 0.000, 0.000, 16:33:26.163, 1680381206163
9, 555.96, 443.09, 392.98, 0.00, 0.000, 0.000, 0.000, 16:33:26.164, 1680381206164
