%OpenBCI Raw EEG Data
%Number of channels = 4
%Sample Rate = 200.0 Hz
%First Column = SampleIndex
%Last Column = Timestamp 
%Other Columns = EEG data in microvolts followed by Accel Data (in G) interleaved with Aux Data
0, -400.94, -213.80, -211.14, 0.00, 0.000, 0.000, 0.000, 16:32:04.200, 1680381124200
1, -57.42, 83.52, 47.32, 0.00, 0.000, 0.000, 0.000, 16:32:04.201, 1680381124201
2, 483.72, 378.93, 362.03, 0.00, 0.000, 0.000, 0.000, 16:32:04.201, 1680381124201
3, -317.18, -151.14, -181.24, 0.00, 0.000, 0.000, 0.000, 16:32:04.230, 1680381124230
4, -328.29, -97.06, -160.13, 0.00, 0.000, 0.000, 0.000, 16:32:04.230, 1680381124230
5, 438.28, 397.33, 355.79, 0.00, 0.000, 0.000, 0.000, 16:32:04.232, 1680381124232
6, -126.23, -51.47, -55.21, 0.00, 0.000, 0.000, 0.000, 16:32:04.232, 1680381124232
7, -451.20, -242.97, -218.65, 0.00, 0.000, 0.000, 0.000, 16:32:04.232, 1680381124232
8, 227.41, 226.28, 256.87, 0.00, 0.000, 0.000, 0.000, 16:32:04.232, 1680381124232
9, 222.71, 158.05, 199.33, 0.00, 0.000, 0.000, 0.000, 16:32:04.233, 1680381124233
10, -411.92, -230.14, -198.60, 0.00, 0.000, 0.000, 0.000, 16:32:04.233, 1680381124233
11, -58.83, 50.84, 54.46, 0.00, 0.000, 0.000, 0.000, 16:32:04.261, 1680381124261
12, 495.53, 360.74, 372.10, 0.00, 0.000, 0.000, 0.000, 16:32:04.261, 1680381124261
13, -307.08, -172.03, -160.67, 0.00, 0.000, 0.000, 0.000, 16:32:04.261, 1680381124261
14, -308.03, -120.30, -132.04, 0.00, 0.000, 0.000, 0.000, 16:32:04.261, 1680381124261
15, 475.26, 379.84, 383.20, 0.00, 0.000, 0.000, 0.000, 16:32:04.290, 1680381124290
16, -106.59, -46.91, -46.22, 0.00, 0.000, 0.000, 0.000, 16:32:04.290, 1680381124290
17, -438.85, -223.93, -221.68, 0.00, 0.000, 0.000, 0.000, 16:32:04.291, 1680381124291
18, 220.68, 244.19, 243.67, 0.00, 0.000, 0.000, 0.000, 16:32:04.291, 1680381124291
19, 202.30, 164.49, 169.99, 0.00, 0.000, 0.000, 0.000, 16:32:04.292, 1680381124292
20, -433.15, -248.54, -225.56, 0.00, 0.000, 0.000, 0.000, 16:32:04.292, 1680381124292
21, -93.43, 32.51, 22.51, 0.00, 0.000, 0.000, 0.000, 16:32:04.293, 1680381124293
22, 440.38, 337.82, 344.29, 0.00, 0.000, 0.000, 0.000, 16:32:04.293, 1680381124293
23, -335.35, -199.18, -206.38, 0.00, 0.000, 0.000, 0.000, 16:32:04.320, 1680381124320
24, -341.79, -146.14, -160.12, 0.00, 0.000, 0.000, 0.000, 16:32:04.320, 1680381124320
25, 430.73, 361.72, 337.58, 0.00, 0.000, 0.000, 0.000, 16:32:04.321, 1680381124321
26, -102.78, -56.28, -77.16, 0.00, 0.000, 0.000, 0.000, 16:32:04.321, 1680381124321
27, -472.49, -244.73, -257.74, 0.00, 0.000, 0.000, 0.000, 16:32:04.350, 1680381124350
28, 237.04, 251.13, 244.13, 0.00, 0.000, 0.000, 0.000, 16:32:04.350, 1680381124350
29, 232.74, 162.32, 185.66, 0.00, 0.000, 0.000, 0.000, 16:32:04.351, 1680381124351
30, -473.82, -265.68, -228.54, 0.00, 0.000, 0.000, 0.000, 16:32:04.351, 1680381124351
31, -96.24, 28.49, 18.00, 0.00, 0.000, 0.000, 0.000, 16:32:04.352, 1680381124352
32, 472.86, 349.95, 345.91, 0.00, 0.000, 0.000, 0.000, 16:32:04.352, 1680381124352
33, -374.55, -212.32, -232.09, 0.00, 0.000, 0.000, 0.000, 16:32:04.353, 1680381124353
34, -355.61, -138.66, -215.39, 0.00, 0.000, 0.000, 0.000, 16:32:04.353, 1680381124353
35, 477.86, 392.61, 309.14, 0.00, 0.000, 0.000, 0.000, 16:32:04.380, 1680381124380
36, -97.57, -54.73, -100.14, 0.00, 0.000, 0.000, 0.000, 16:32:04.380, 1680381124380
37, -459.14, -246.52, -295.66, 0.00, 0.000, 0.000, 0.000, 16:32:04.381, 1680381124381
38, 264.87, 268.09, 208.44, 0.00, 0.000, 0.000, 0.000, 16:32:04.381, 1680381124381
39, 256.41, 176.75, 138.00, 0.00, 0.000, 0.000, 0.000, 16:32:04.410, 1680381124410
40, -457.82, -256.18, -270.13, 0.00, 0.000, 0.000, 0.000, 16:32:04.410, 1680381124410
41, -56.61, 54.08, -2.18, 0.00, 0.000, 0.000, 0.000, 16:32:04.411, 1680381124411
42, 535.98, 389.59, 361.87, 0.00, 0.000, 0.000, 0.000, 16:32:04.411, 1680381124411
43, -331.94, -195.24, -203.51, 0.00, 0.000, 0.000, 0.000, 16:32:04.412, 1680381124412
44, -314.61, -126.35, -155.61, 0.00, 0.000, 0.000, 0.000, 16:32:04.412, 1680381124412
45, 529.39, 420.59, 379.51, 0.00, 0.000, 0.000, 0.000, 16:32:04.413, 1680381124413
46, -65.61, -22.16, -53.58, 0.00, 0.000, 0.000, 0.000, 16:32:04.413, 1680381124413
47, -440.61, -211.78, -262.03, 0.00, 0.000, 0.000, 0.000, 16:32:04.441, 1680381124441
48, 300.72, 303.49, 233.81, 0.00, 0.000, 0.000, 0.000, 16:32:04.441, 1680381124441
49, 280.65, 203.91, 152.29, 0.00, 0.000, 0.000, 0.000, 16:32:04.442, 1680381124442
50, -454.15, -237.50, -282.84, 0.00, 0.000, 0.000, 0.000, 16:32:04.443, 1680381124443
51, -57.41, 72.26, -6.17, 0.00, 0.000, 0.000, 0.000, 16:32:04.470, 1680381124470
52, 541.93, 406.82, 353.75, 0.00, 0.000, 0.000, 0.000, 16:32:04.470, 1680381124470
53, -323.14, -178.40, -205.54, 0.00, 0.000, 0.000, 0.000, 16:32:04.471, 1680381124471
54, -324.13, -117.84, -168.70, 0.00, 0.000, 0.000, 0.000, 16:32:04.471, 1680381124471
55, 541.37, 443.31, 400.58, 0.00, 0.000, 0.000, 0.000, 16:32:04.472, 1680381124472
56, -59.29, -21.65, -41.91, 0.00, 0.000, 0.000, 0.000, 16:32:04.472, 1680381124472
57, -460.53, -225.42, -252.39, 0.00, 0.000, 0.000, 0.000, 16:32:04.473, 1680381124473
58, 263.90, 282.61, 222.84, 0.00, 0.000, 0.000, 0.000, 16:32:04.473, 1680381124473
59, 264.51, 199.16, 167.94, 0.00, 0.000, 0.000, 0.000, 16:32:04.500, 1680381124500
60, -469.02, -252.34, -281.06, 0.00, 0.000, 0.000, 0.000, 16:32:04.500, 1680381124500
61, -74.50, 59.01, 2.76, 0.00, 0.000, 0.000, 0.000, 16:32:04.501, 1680381124501
62, 526.44, 388.86, 350.66, 0.00, 0.000, 0.000, 0.000, 16:32:04.501, 1680381124501
63, -330.13, -185.91, -199.73, 0.00, 0.000, 0.000, 0.000, 16:32:04.530, 1680381124530
64, -325.85, -128.17, -163.54, 0.00, 0.000, 0.000, 0.000, 16:32:04.530, 1680381124530
65, 541.07, 438.25, 404.71, 0.00, 0.000, 0.000, 0.000, 16:32:04.531, 1680381124531
66, -66.34, -35.42, -37.45, 0.00, 0.000, 0.000, 0.000, 16:32:04.531, 1680381124531
67, -444.79, -222.41, -237.36, 0.00, 0.000, 0.000, 0.000, 16:32:04.532, 1680381124532
68, 286.67, 278.41, 245.92, 0.00, 0.000, 0.000, 0.000, 16:32:04.532, 1680381124532
69, 281.60, 203.42, 178.89, 0.00, 0.000, 0.000, 0.000, 16:32:04.533, 1680381124533
70, -454.96, -252.94, -256.55, 0.00, 0.000, 0.000, 0.000, 16:32:04.533, 1680381124533
71, -68.72, 49.95, 6.98, 0.00, 0.000, 0.000, 0.000, 16:32:04.560, 1680381124560
72, 525.78, 385.49, 356.46, 0.00, 0.000, 0.000, 0.000, 16:32:04.560, 1680381124560
73, -344.50, -194.70, -214.02, 0.00, 0.000, 0.000, 0.000, 16:32:04.561, 1680381124561
74, -342.60, -132.75, -174.55, 0.00, 0.000, 0.000, 0.000, 16:32:04.561, 1680381124561
75, 519.28, 412.75, 369.90, 0.00, 0.000, 0.000, 0.000, 16:32:04.590, 1680381124590
76, -75.27, -40.20, -59.02, 0.00, 0.000, 0.000, 0.000, 16:32:04.590, 1680381124590
77, -464.51, -237.60, -259.23, 0.00, 0.000, 0.000, 0.000, 16:32:04.592, 1680381124592
78, 273.97, 278.90, 229.44, 0.00, 0.000, 0.000, 0.000, 16:32:04.592, 1680381124592
79, 273.35, 193.34, 180.84, 0.00, 0.000, 0.000, 0.000, 16:32:04.592, 1680381124592
80, -467.22, -255.81, -253.80, 0.00, 0.000, 0.000, 0.000, 16:32:04.592, 1680381124592
81, -78.75, 44.06, 21.39, 0.00, 0.000, 0.000, 0.000, 16:32:04.593, 1680381124593
82, 519.13, 391.16, 374.41, 0.00, 0.000, 0.000, 0.000, 16:32:04.593, 1680381124593
83, -341.45, -194.42, -187.05, 0.00, 0.000, 0.000, 0.000, 16:32:04.621, 1680381124621
84, -335.17, -140.81, -178.58, 0.00, 0.000, 0.000, 0.000, 16:32:04.621, 1680381124621
85, 526.46, 417.27, 381.68, 0.00, 0.000, 0.000, 0.000, 16:32:04.628, 1680381124628
86, -80.56, -36.65, -64.95, 0.00, 0.000, 0.000, 0.000, 16:32:04.628, 1680381124628
87, -458.56, -230.78, -259.64, 0.00, 0.000, 0.000, 0.000, 16:32:04.652, 1680381124652
88, 256.03, 265.59, 213.77, 0.00, 0.000, 0.000, 0.000, 16:32:04.652, 1680381124652
89, 273.26, 198.21, 164.75, 0.00, 0.000, 0.000, 0.000, 16:32:04.652, 1680381124652
90, -458.60, -251.62, -255.89, 0.00, 0.000, 0.000, 0.000, 16:32:04.652, 1680381124652
91, -66.36, 59.15, 15.02, 0.00, 0.000, 0.000, 0.000, 16:32:04.652, 1680381124652
92, 512.84, 372.88, 368.35, 0.00, 0.000, 0.000, 0.000, 16:32:04.652, 1680381124652
93, -345.92, -197.90, -186.23, 0.00, 0.000, 0.000, 0.000, 16:32:04.653, 1680381124653
94, -330.76, -128.12, -132.95, 0.00, 0.000, 0.000, 0.000, 16:32:04.653, 1680381124653
95, 507.97, 411.23, 391.05, 0.00, 0.000, 0.000, 0.000, 16:32:04.681, 1680381124681
96, -70.79, -30.78, -33.48, 0.00, 0.000, 0.000, 0.000, 16:32:04.681, 1680381124681
97, -465.62, -228.37, -251.09, 0.00, 0.000, 0.000, 0.000, 16:32:04.682, 1680381124682
98, 256.37, 277.28, 221.98, 0.00, 0.000, 0.000, 0.000, 16:32:04.682, 1680381124682
99, 256.82, 198.44, 166.73, 0.00, 0.000, 0.000, 0.000, 16:32:04.710, 1680381124710
100, -471.49, -247.28, -272.45, 0.00, 0.000, 0.000, 0.000, 16:32:04.710, 1680381124710
101, -73.01, 61.72, 16.20, 0.00, 0.000, 0.000, 0.000, 16:32:04.712, 1680381124712
102, 513.17, 390.38, 366.39, 0.00, 0.000, 0.000, 0.000, 16:32:04.712, 1680381124712
103, -353.01, -200.63, -186.85, 0.00, 0.000, 0.000, 0.000, 16:32:04.712, 1680381124712
104, -350.16, -136.27, -162.45, 0.00, 0.000, 0.000, 0.000, 16:32:04.712, 1680381124712
105, 519.37, 427.42, 402.43, 0.00, 0.000, 0.000, 0.000, 16:32:04.713, 1680381124713
106, -74.29, -28.93, -38.46, 0.00, 0.000, 0.000, 0.000, 16:32:04.713, 1680381124713
107, -453.51, -221.92, -237.75, 0.00, 0.000, 0.000, 0.000, 16:32:04.740, 1680381124740
108, 265.49, 283.22, 226.07, 0.00, 0.000, 0.000, 0.000, 16:32:04.740, 1680381124740
109, 279.37, 210.14, 183.43, 0.00, 0.000, 0.000, 0.000, 16:32:04.742, 1680381124742
110, -460.62, -245.20, -256.25, 0.00, 0.000, 0.000, 0.000, 16:32:04.742, 1680381124742
111, -62.02, 65.50, 22.39, 0.00, 0.000, 0.000, 0.000, 16:32:04.770, 1680381124770
112, 535.94, 394.70, 374.06, 0.00, 0.000, 0.000, 0.000, 16:32:04.770, 1680381124770
113, -332.13, -188.48, -186.31, 0.00, 0.000, 0.000, 0.000, 16:32:04.771, 1680381124771
114, -330.08, -132.66, -158.63, 0.00, 0.000, 0.000, 0.000, 16:32:04.771, 1680381124771
115, 529.81, 425.59, 390.70, 0.00, 0.000, 0.000, 0.000, 16:32:04.772, 1680381124772
116, -64.80, -26.98, -37.94, 0.00, 0.000, 0.000, 0.000, 16:32:04.772, 1680381124772
117, -457.63, -221.85, -248.68, 0.00, 0.000, 0.000, 0.000, 16:32:04.773, 1680381124773
118, 263.69, 276.54, 231.58, 0.00, 0.000, 0.000, 0.000, 16:32:04.773, 1680381124773
119, 264.22, 190.16, 169.03, 0.00, 0.000, 0.000, 0.000, 16:32:04.800, 1680381124800
120, -463.43, -246.86, -254.34, 0.00, 0.000, 0.000, 0.000, 16:32:04.800, 1680381124800
121, -84.57, 51.49, -1.07, 0.00, 0.000, 0.000, 0.000, 16:32:04.801, 1680381124801
122, 494.44, 361.71, 325.99, 0.00, 0.000, 0.000, 0.000, 16:32:04.801, 1680381124801
123, -369.32, -208.48, -217.17, 0.00, 0.000, 0.000, 0.000, 16:32:04.832, 1680381124832
124, -358.81, -138.39, -176.11, 0.00, 0.000, 0.000, 0.000, 16:32:04.832, 1680381124832
125, 501.31, 416.22, 378.18, 0.00, 0.000, 0.000, 0.000, 16:32:04.833, 1680381124833
126, -86.63, -37.28, -53.33, 0.00, 0.000, 0.000, 0.000, 16:32:04.833, 1680381124833
127, -481.57, -238.79, -252.39, 0.00, 0.000, 0.000, 0.000, 16:32:04.833, 1680381124833
128, 242.29, 266.44, 225.97, 0.00, 0.000, 0.000, 0.000, 16:32:04.833, 1680381124833
129, 253.85, 188.60, 181.84, 0.00, 0.000, 0.000, 0.000, 16:32:04.834, 1680381124834
130, -470.77, -256.18, -251.26, 0.00, 0.000, 0.000, 0.000, 16:32:04.834, 1680381124834
131, -77.33, 54.11, 14.58, 0.00, 0.000, 0.000, 0.000, 16:32:04.860, 1680381124860
132, 523.76, 391.55, 367.56, 0.00, 0.000, 0.000, 0.000, 16:32:04.860, 1680381124860
133, -342.63, -187.17, -198.57, 0.00, 0.000, 0.000, 0.000, 16:32:04.861, 1680381124861
134, -334.42, -124.66, -170.07, 0.00, 0.000, 0.000, 0.000, 16:32:04.861, 1680381124861
135, 514.60, 418.23, 381.90, 0.00, 0.000, 0.000, 0.000, 16:32:04.891, 1680381124891
136, -80.31, -35.94, -53.11, 0.00, 0.000, 0.000, 0.000, 16:32:04.891, 1680381124891
137, -467.38, -226.74, -247.70, 0.00, 0.000, 0.000, 0.000, 16:32:04.892, 1680381124892
138, 261.46, 279.73, 227.93, 0.00, 0.000, 0.000, 0.000, 16:32:04.892, 1680381124892
139, 267.89, 199.57, 175.81, 0.00, 0.000, 0.000, 0.000, 16:32:04.892, 1680381124892
140, -471.38, -253.65, -250.01, 0.00, 0.000, 0.000, 0.000, 16:32:04.892, 1680381124892
141, -91.41, 49.85, 5.96, 0.00, 0.000, 0.000, 0.000, 16:32:04.893, 1680381124893
142, 508.59, 385.31, 352.46, 0.00, 0.000, 0.000, 0.000, 16:32:04.893, 1680381124893
143, -357.45, -201.55, -207.42, 0.00, 0.000, 0.000, 0.000, 16:32:04.921, 1680381124921
144, -363.15, -148.09, -180.84, 0.00, 0.000, 0.000, 0.000, 16:32:04.921, 1680381124921
145, 509.10, 420.70, 389.09, 0.00, 0.000, 0.000, 0.000, 16:32:04.922, 1680381124922
146, -78.74, -31.32, -45.21, 0.00, 0.000, 0.000, 0.000, 16:32:04.922, 1680381124922
147, -474.68, -235.41, -252.67, 0.00, 0.000, 0.000, 0.000, 16:32:04.950, 1680381124950
148, 248.17, 271.12, 223.26, 0.00, 0.000, 0.000, 0.000, 16:32:04.950, 1680381124950
149, 259.94, 193.75, 177.98, 0.00, 0.000, 0.000, 0.000, 16:32:04.951, 1680381124951
150, -471.93, -256.00, -260.38, 0.00, 0.000, 0.000, 0.000, 16:32:04.951, 1680381124951
151, -76.70, 57.49, 14.74, 0.00, 0.000, 0.000, 0.000, 16:32:04.952, 1680381124952
152, 522.94, 391.47, 378.29, 0.00, 0.000, 0.000, 0.000, 16:32:04.952, 1680381124952
153, -340.12, -184.81, -187.45, 0.00, 0.000, 0.000, 0.000, 16:32:04.953, 1680381124953
154, -333.49, -128.83, -150.87, 0.00, 0.000, 0.000, 0.000, 16:32:04.953, 1680381124953
155, 529.09, 425.69, 391.78, 0.00, 0.000, 0.000, 0.000, 16:32:04.980, 1680381124980
156, -54.09, -17.20, -29.60, 0.00, 0.000, 0.000, 0.000, 16:32:04.980, 1680381124980
157, -450.87, -218.57, -230.65, 0.00, 0.000, 0.000, 0.000, 16:32:04.981, 1680381124981
158, 269.30, 275.05, 241.34, 0.00, 0.000, 0.000, 0.000, 16:32:04.981, 1680381124981
159, 276.73, 198.10, 175.39, 0.00, 0.000, 0.000, 0.000, 16:32:05.011, 1680381125011
160, -449.42, -248.07, -259.46, 0.00, 0.000, 0.000, 0.000, 16:32:05.011, 1680381125011
161, -66.53, 54.90, 7.43, 0.00, 0.000, 0.000, 0.000, 16:32:05.012, 1680381125012
162, 528.75, 386.67, 365.93, 0.00, 0.000, 0.000, 0.000, 16:32:05.012, 1680381125012
163, -333.43, -195.18, -196.04, 0.00, 0.000, 0.000, 0.000, 16:32:05.014, 1680381125014
164, -336.68, -134.70, -166.32, 0.00, 0.000, 0.000, 0.000, 16:32:05.014, 1680381125014
165, 521.32, 420.84, 390.66, 0.00, 0.000, 0.000, 0.000, 16:32:05.014, 1680381125014
166, -79.89, -40.18, -52.89, 0.00, 0.000, 0.000, 0.000, 16:32:05.014, 1680381125014
167, -471.14, -233.11, -244.29, 0.00, 0.000, 0.000, 0.000, 16:32:05.042, 1680381125042
168, 260.22, 262.99, 238.98, 0.00, 0.000, 0.000, 0.000, 16:32:05.042, 1680381125042
169, 279.41, 193.60, 191.92, 0.00, 0.000, 0.000, 0.000, 16:32:05.043, 1680381125043
170, -456.87, -242.01, -251.06, 0.00, 0.000, 0.000, 0.000, 16:32:05.043, 1680381125043
171, -78.53, 71.02, 3.50, 0.00, 0.000, 0.000, 0.000, 16:32:05.071, 1680381125071
172, 502.14, 402.28, 336.35, 0.00, 0.000, 0.000, 0.000, 16:32:05.071, 1680381125071
173, -367.74, -179.87, -232.94, 0.00, 0.000, 0.000, 0.000, 16:32:05.072, 1680381125072
174, -380.01, -147.50, -207.34, 0.00, 0.000, 0.000, 0.000, 16:32:05.072, 1680381125072
175, 465.61, 376.32, 346.72, 0.00, 0.000, 0.000, 0.000, 16:32:05.073, 1680381125073
176, -113.09, -74.55, -62.49, 0.00, 0.000, 0.000, 0.000, 16:32:05.073, 1680381125073
177, -476.64, -261.21, -248.59, 0.00, 0.000, 0.000, 0.000, 16:32:05.074, 1680381125074
178, 264.28, 256.28, 231.43, 0.00, 0.000, 0.000, 0.000, 16:32:05.074, 1680381125074
179, 287.87, 196.96, 189.40, 0.00, 0.000, 0.000, 0.000, 16:32:05.101, 1680381125101
180, -446.50, -247.07, -240.72, 0.00, 0.000, 0.000, 0.000, 16:32:05.101, 1680381125101
181, -67.15, 55.59, 14.55, 0.00, 0.000, 0.000, 0.000, 16:32:05.102, 1680381125102
182, 512.47, 366.96, 354.92, 0.00, 0.000, 0.000, 0.000, 16:32:05.102, 1680381125102
183, -353.23, -199.60, -205.69, 0.00, 0.000, 0.000, 0.000, 16:32:05.133, 1680381125133
184, -357.41, -143.40, -181.53, 0.00, 0.000, 0.000, 0.000, 16:32:05.133, 1680381125133
185, 487.23, 409.90, 370.99, 0.00, 0.000, 0.000, 0.000, 16:32:05.133, 1680381125133
186, -81.24, -29.15, -43.07, 0.00, 0.000, 0.000, 0.000, 16:32:05.133, 1680381125133
187, -471.89, -228.35, -242.54, 0.00, 0.000, 0.000, 0.000, 16:32:05.133, 1680381125133
188, 241.38, 260.91, 227.78, 0.00, 0.000, 0.000, 0.000, 16:32:05.133, 1680381125133
189, 259.96, 192.68, 177.31, 0.00, 0.000, 0.000, 0.000, 16:32:05.139, 1680381125139
190, -465.94, -250.01, -254.32, 0.00, 0.000, 0.000, 0.000, 16:32:05.139, 1680381125139
191, -82.59, 54.25, 11.30, 0.00, 0.000, 0.000, 0.000, 16:32:05.161, 1680381125161
192, 524.09, 393.79, 362.99, 0.00, 0.000, 0.000, 0.000, 16:32:05.161, 1680381125161
193, -340.15, -190.18, -206.95, 0.00, 0.000, 0.000, 0.000, 16:32:05.163, 1680381125163
194, -351.19, -135.54, -182.98, 0.00, 0.000, 0.000, 0.000, 16:32:05.163, 1680381125163
195, 515.92, 425.86, 388.45, 0.00, 0.000, 0.000, 0.000, 16:32:05.191, 1680381125191
196, -55.69, -19.44, -18.84, 0.00, 0.000, 0.000, 0.000, 16:32:05.191, 1680381125191
197, -466.19, -231.86, -213.70, 0.00, 0.000, 0.000, 0.000, 16:32:05.192, 1680381125192
198, 252.38, 268.72, 274.44, 0.00, 0.000, 0.000, 0.000, 16:32:05.192, 1680381125192
199, 273.21, 209.70, 237.94, 0.00, 0.000, 0.000, 0.000, 16:32:05.193, 1680381125193
200, -456.94, -238.37, -209.86, 0.00, 0.000, 0.000, 0.000, 16:32:05.193, 1680381125193
0, -96.97, 51.87, 9.31, 0.00, 0.000, 0.000, 0.000, 16:32:05.194, 1680381125194
1, 518.52, 389.33, 346.71, 0.00, 0.000, 0.000, 0.000, 16:32:05.221, 1680381125221
2, -340.38, -188.19, -222.92, 0.00, 0.000, 0.000, 0.000, 16:32:05.221, 1680381125221
3, -349.99, -138.93, -199.32, 0.00, 0.000, 0.000, 0.000, 16:32:05.222, 1680381125222
4, 506.14, 418.15, 363.21, 0.00, 0.000, 0.000, 0.000, 16:32:05.222, 1680381125222
5, -62.34, -26.35, -37.80, 0.00, 0.000, 0.000, 0.000, 16:32:05.223, 1680381125223
6, -466.78, -231.81, -235.95, 0.00, 0.000, 0.000, 0.000, 16:32:05.223, 1680381125223
7, 246.81, 259.47, 236.85, 0.00, 0.000, 0.000, 0.000, 16:32:05.251, 1680381125251
8, 274.90, 199.89, 192.93, 0.00, 0.000, 0.000, 0.000, 16:32:05.251, 1680381125251
9, -455.64, -256.53, -248.25, 0.00, 0.000, 0.000, 0.000, 16:32:05.252, 1680381125252
10, -94.05, 42.20, 15.94, 0.00, 0.000, 0.000, 0.000, 16:32:05.252, 1680381125252
11, 511.82, 388.41, 365.59, 0.00, 0.000, 0.000, 0.000, 16:32:05.253, 1680381125253
12, -343.64, -190.69, -194.54, 0.00, 0.000, 0.000, 0.000, 16:32:05.253, 1680381125253
13, -351.58, -138.32, -166.57, 0.00, 0.000, 0.000, 0.000, 16:32:05.281, 1680381125281
14, 507.58, 416.05, 383.29, 0.00, 0.000, 0.000, 0.000, 16:32:05.281, 1680381125281
15, -74.62, -29.06, -48.02, 0.00, 0.000, 0.000, 0.000, 16:32:05.282, 1680381125282
16, -464.67, -233.21, -255.24, 0.00, 0.000, 0.000, 0.000, 16:32:05.282, 1680381125282
17, 248.45, 264.08, 217.77, 0.00, 0.000, 0.000, 0.000, 16:32:05.283, 1680381125283
18, 259.25, 197.81, 165.44, 0.00, 0.000, 0.000, 0.000, 16:32:05.283, 1680381125283
19, -472.36, -254.52, -253.69, 0.00, 0.000, 0.000, 0.000, 16:32:05.311, 1680381125311
20, -87.89, 42.40, 8.14, 0.00, 0.000, 0.000, 0.000, 16:32:05.311, 1680381125311
21, 528.74, 389.49, 375.53, 0.00, 0.000, 0.000, 0.000, 16:32:05.312, 1680381125312
22, -349.25, -205.60, -203.68, 0.00, 0.000, 0.000, 0.000, 16:32:05.312, 1680381125312
23, -348.72, -139.84, -166.56, 0.00, 0.000, 0.000, 0.000, 16:32:05.313, 1680381125313
24, 499.90, 408.50, 374.78, 0.00, 0.000, 0.000, 0.000, 16:32:05.313, 1680381125313
25, -73.94, -40.67, -50.96, 0.00, 0.000, 0.000, 0.000, 16:32:05.341, 1680381125341
26, -474.05, -249.29, -264.03, 0.00, 0.000, 0.000, 0.000, 16:32:05.341, 1680381125341
27, 271.24, 258.21, 215.53, 0.00, 0.000, 0.000, 0.000, 16:32:05.342, 1680381125342
28, 263.95, 182.90, 162.52, 0.00, 0.000, 0.000, 0.000, 16:32:05.342, 1680381125342
29, -472.57, -252.53, -260.34, 0.00, 0.000, 0.000, 0.000, 16:32:05.343, 1680381125343
30, -82.08, 45.34, -2.28, 0.00, 0.000, 0.000, 0.000, 16:32:05.343, 1680381125343
31, 531.80, 384.02, 360.18, 0.00, 0.000, 0.000, 0.000, 16:32:05.371, 1680381125371
32, -341.81, -204.22, -186.07, 0.00, 0.000, 0.000, 0.000, 16:32:05.371, 1680381125371
33, -360.09, -149.79, -162.60, 0.00, 0.000, 0.000, 0.000, 16:32:05.372, 1680381125372
34, 511.15, 405.27, 406.07, 0.00, 0.000, 0.000, 0.000, 16:32:05.372, 1680381125372
35, -87.95, -44.33, -33.41, 0.00, 0.000, 0.000, 0.000, 16:32:05.373, 1680381125373
36, -471.37, -246.21, -241.36, 0.00, 0.000, 0.000, 0.000, 16:32:05.373, 1680381125373
37, 219.67, 239.23, 211.59, 0.00, 0.000, 0.000, 0.000, 16:32:05.401, 1680381125401
38, 245.56, 176.70, 171.43, 0.00, 0.000, 0.000, 0.000, 16:32:05.401, 1680381125401
39, -500.88, -270.95, -276.40, 0.00, 0.000, 0.000, 0.000, 16:32:05.402, 1680381125402
40, -115.18, 33.04, -6.73, 0.00, 0.000, 0.000, 0.000, 16:32:05.402, 1680381125402
41, 493.90, 372.51, 348.57, 0.00, 0.000, 0.000, 0.000, 16:32:05.403, 1680381125403
42, -371.87, -211.84, -221.19, 0.00, 0.000, 0.000, 0.000, 16:32:05.403, 1680381125403
43, -385.72, -156.94, -205.09, 0.00, 0.000, 0.000, 0.000, 16:32:05.431, 1680381125431
44, 493.68, 405.98, 367.40, 0.00, 0.000, 0.000, 0.000, 16:32:05.431, 1680381125431
45, -85.94, -34.66, -63.56, 0.00, 0.000, 0.000, 0.000, 16:32:05.432, 1680381125432
46, -467.16, -238.56, -266.37, 0.00, 0.000, 0.000, 0.000, 16:32:05.432, 1680381125432
47, 235.32, 248.29, 201.47, 0.00, 0.000, 0.000, 0.000, 16:32:05.439, 1680381125439
48, 281.29, 198.43, 189.30, 0.00, 0.000, 0.000, 0.000, 16:32:05.439, 1680381125439
49, -480.46, -259.69, -261.91, 0.00, 0.000, 0.000, 0.000, 16:32:05.461, 1680381125461
50, -96.59, 36.49, 0.65, 0.00, 0.000, 0.000, 0.000, 16:32:05.461, 1680381125461
51, 523.03, 384.67, 350.88, 0.00, 0.000, 0.000, 0.000, 16:32:05.462, 1680381125462
52, -326.24, -188.00, -215.95, 0.00, 0.000, 0.000, 0.000, 16:32:05.462, 1680381125462
53, -339.57, -137.54, -187.87, 0.00, 0.000, 0.000, 0.000, 16:32:05.463, 1680381125463
54, 517.27, 417.77, 364.15, 0.00, 0.000, 0.000, 0.000, 16:32:05.463, 1680381125463
55, -56.50, -19.00, -54.24, 0.00, 0.000, 0.000, 0.000, 16:32:05.492, 1680381125492
56, -461.15, -232.51, -269.36, 0.00, 0.000, 0.000, 0.000, 16:32:05.492, 1680381125492
57, 263.24, 268.74, 207.87, 0.00, 0.000, 0.000, 0.000, 16:32:05.494, 1680381125494
58, 292.97, 211.74, 166.69, 0.00, 0.000, 0.000, 0.000, 16:32:05.494, 1680381125494
59, -451.50, -241.57, -273.26, 0.00, 0.000, 0.000, 0.000, 16:32:05.494, 1680381125494
60, -79.99, 47.74, -12.83, 0.00, 0.000, 0.000, 0.000, 16:32:05.494, 1680381125494
61, 533.06, 393.75, 360.04, 0.00, 0.000, 0.000, 0.000, 16:32:05.521, 1680381125521
62, -329.83, -198.52, -200.43, 0.00, 0.000, 0.000, 0.000, 16:32:05.521, 1680381125521
63, -345.25, -137.24, -177.91, 0.00, 0.000, 0.000, 0.000, 16:32:05.522, 1680381125522
64, 507.50, 411.45, 378.63, 0.00, 0.000, 0.000, 0.000, 16:32:05.522, 1680381125522
65, -56.65, -22.46, -53.16, 0.00, 0.000, 0.000, 0.000, 16:32:05.523, 1680381125523
66, -465.07, -238.70, -259.73, 0.00, 0.000, 0.000, 0.000, 16:32:05.523, 1680381125523
67, 254.66, 271.34, 211.83, 0.00, 0.000, 0.000, 0.000, 16:32:05.551, 1680381125551
68, 293.51, 217.67, 186.14, 0.00, 0.000, 0.000, 0.000, 16:32:05.551, 1680381125551
69, -463.33, -252.32, -272.24, 0.00, 0.000, 0.000, 0.000, 16:32:05.553, 1680381125553
70, -93.76, 43.18, -7.13, 0.00, 0.000, 0.000, 0.000, 16:32:05.553, 1680381125553
71, 518.79, 395.49, 357.91, 0.00, 0.000, 0.000, 0.000, 16:32:05.553, 1680381125553
72, -325.16, -180.04, -203.51, 0.00, 0.000, 0.000, 0.000, 16:32:05.553, 1680381125553
73, -342.30, -138.11, -174.12, 0.00, 0.000, 0.000, 0.000, 16:32:05.581, 1680381125581
74, 508.94, 418.35, 377.31, 0.00, 0.000, 0.000, 0.000, 16:32:05.581, 1680381125581
75, -51.52, -18.83, -34.33, 0.00, 0.000, 0.000, 0.000, 16:32:05.582, 1680381125582
76, -452.40, -234.29, -251.48, 0.00, 0.000, 0.000, 0.000, 16:32:05.582, 1680381125582
77, 253.62, 265.46, 225.18, 0.00, 0.000, 0.000, 0.000, 16:32:05.583, 1680381125583
78, 294.75, 207.23, 190.95, 0.00, 0.000, 0.000, 0.000, 16:32:05.583, 1680381125583
79, -453.00, -246.81, -259.76, 0.00, 0.000, 0.000, 0.000, 16:32:05.611, 1680381125611
80, -71.01, 56.45, 9.47, 0.00, 0.000, 0.000, 0.000, 16:32:05.611, 1680381125611
81, 537.38, 396.75, 366.04, 0.00, 0.000, 0.000, 0.000, 16:32:05.612, 1680381125612
82, -322.18, -182.37, -185.57, 0.00, 0.000, 0.000, 0.000, 16:32:05.612, 1680381125612
83, -353.38, -141.44, -181.37, 0.00, 0.000, 0.000, 0.000, 16:32:05.613, 1680381125613
84, 508.62, 412.20, 374.18, 0.00, 0.000, 0.000, 0.000, 16:32:05.613, 1680381125613
85, -54.45, -24.74, -35.39, 0.00, 0.000, 0.000, 0.000, 16:32:05.641, 1680381125641
86, -468.75, -241.50, -263.83, 0.00, 0.000, 0.000, 0.000, 16:32:05.641, 1680381125641
87, 247.32, 257.89, 217.28, 0.00, 0.000, 0.000, 0.000, 16:32:05.642, 1680381125642
88, 278.76, 202.76, 177.23, 0.00, 0.000, 0.000, 0.000, 16:32:05.642, 1680381125642
89, -452.86, -241.38, -245.01, 0.00, 0.000, 0.000, 0.000, 16:32:05.643, 1680381125643
90, -89.96, 41.21, -5.10, 0.00, 0.000, 0.000, 0.000, 16:32:05.643, 1680381125643
91, 524.31, 387.82, 366.11, 0.00, 0.000, 0.000, 0.000, 16:32:05.672, 1680381125672
92, -332.76, -196.82, -194.46, 0.00, 0.000, 0.000, 0.000, 16:32:05.672, 1680381125672
93, -353.93, -143.03, -179.78, 0.00, 0.000, 0.000, 0.000, 16:32:05.673, 1680381125673
94, 512.65, 412.72, 377.58, 0.00, 0.000, 0.000, 0.000, 16:32:05.673, 1680381125673
95, -59.34, -29.07, -48.07, 0.00, 0.000, 0.000, 0.000, 16:32:05.674, 1680381125674
96, -454.79, -225.64, -256.59, 0.00, 0.000, 0.000, 0.000, 16:32:05.674, 1680381125674
97, 252.38, 263.15, 217.49, 0.00, 0.000, 0.000, 0.000, 16:32:05.702, 1680381125702
98, 297.94, 212.26, 185.18, 0.00, 0.000, 0.000, 0.000, 16:32:05.702, 1680381125702
99, -449.72, -251.63, -253.60, 0.00, 0.000, 0.000, 0.000, 16:32:05.703, 1680381125703
100, -87.47, 39.64, -4.94, 0.00, 0.000, 0.000, 0.000, 16:32:05.703, 1680381125703
101, 553.46, 402.22, 384.60, 0.00, 0.000, 0.000, 0.000, 16:32:05.703, 1680381125703
102, -326.74, -190.16, -201.50, 0.00, 0.000, 0.000, 0.000, 16:32:05.703, 1680381125703
103, -344.04, -135.24, -182.47, 0.00, 0.000, 0.000, 0.000, 16:32:05.731, 1680381125731
104, 523.61, 423.06, 382.58, 0.00, 0.000, 0.000, 0.000, 16:32:05.731, 1680381125731
105, -42.00, -14.60, -44.91, 0.00, 0.000, 0.000, 0.000, 16:32:05.732, 1680381125732
106, -446.49, -230.98, -257.44, 0.00, 0.000, 0.000, 0.000, 16:32:05.732, 1680381125732
107, 247.76, 262.83, 199.64, 0.00, 0.000, 0.000, 0.000, 16:32:05.733, 1680381125733
108, 304.14, 219.77, 179.86, 0.00, 0.000, 0.000, 0.000, 16:32:05.733, 1680381125733
109, -456.50, -250.91, -276.55, 0.00, 0.000, 0.000, 0.000, 16:32:05.762, 1680381125762
110, -86.80, 42.40, -18.01, 0.00, 0.000, 0.000, 0.000, 16:32:05.762, 1680381125762
111, 524.54, 390.75, 352.86, 0.00, 0.000, 0.000, 0.000, 16:32:05.762, 1680381125762
112, -337.51, -189.59, -211.11, 0.00, 0.000, 0.000, 0.000, 16:32:05.762, 1680381125762
113, -352.49, -140.73, -181.15, 0.00, 0.000, 0.000, 0.000, 16:32:05.763, 1680381125763
114, 498.87, 411.62, 369.41, 0.00, 0.000, 0.000, 0.000, 16:32:05.763, 1680381125763
115, -47.87, -10.60, -29.04, 0.00, 0.000, 0.000, 0.000, 16:32:05.791, 1680381125791
116, -467.03, -237.96, -256.39, 0.00, 0.000, 0.000, 0.000, 16:32:05.791, 1680381125791
117, 228.44, 246.32, 190.50, 0.00, 0.000, 0.000, 0.000, 16:32:05.792, 1680381125792
118, 262.05, 184.48, 159.90, 0.00, 0.000, 0.000, 0.000, 16:32:05.792, 1680381125792
119, -475.37, -251.18, -278.45, 0.00, 0.000, 0.000, 0.000, 16:32:05.800, 1680381125800
120, -105.50, 43.15, -13.46, 0.00, 0.000, 0.000, 0.000, 16:32:05.800, 1680381125800
121, 513.45, 393.83, 348.88, 0.00, 0.000, 0.000, 0.000, 16:32:05.821, 1680381125821
122, -339.57, -190.85, -206.05, 0.00, 0.000, 0.000, 0.000, 16:32:05.821, 1680381125821
123, -368.75, -154.93, -185.90, 0.00, 0.000, 0.000, 0.000, 16:32:05.822, 1680381125822
124, 496.20, 409.43, 374.91, 0.00, 0.000, 0.000, 0.000, 16:32:05.822, 1680381125822
125, -46.86, -20.10, -24.72, 0.00, 0.000, 0.000, 0.000, 16:32:05.823, 1680381125823
126, -461.48, -236.97, -244.46, 0.00, 0.000, 0.000, 0.000, 16:32:05.823, 1680381125823
127, 243.26, 255.40, 220.97, 0.00, 0.000, 0.000, 0.000, 16:32:05.851, 1680381125851
128, 287.01, 209.28, 199.81, 0.00, 0.000, 0.000, 0.000, 16:32:05.851, 1680381125851
129, -452.95, -237.75, -239.01, 0.00, 0.000, 0.000, 0.000, 16:32:05.852, 1680381125852
130, -100.46, 37.94, -0.19, 0.00, 0.000, 0.000, 0.000, 16:32:05.852, 1680381125852
131, 527.32, 395.78, 378.18, 0.00, 0.000, 0.000, 0.000, 16:32:05.853, 1680381125853
132, -326.18, -185.92, -190.69, 0.00, 0.000, 0.000, 0.000, 16:32:05.853, 1680381125853
133, -353.43, -138.95, -169.22, 0.00, 0.000, 0.000, 0.000, 16:32:05.882, 1680381125882
134, 504.58, 420.26, 391.81, 0.00, 0.000, 0.000, 0.000, 16:32:05.882, 1680381125882
135, -54.65, -21.91, -20.72, 0.00, 0.000, 0.000, 0.000, 16:32:05.883, 1680381125883
136, -458.25, -229.41, -230.23, 0.00, 0.000, 0.000, 0.000, 16:32:05.883, 1680381125883
137, 250.62, 272.57, 244.65, 0.00, 0.000, 0.000, 0.000, 16:32:05.883, 1680381125883
138, 303.46, 230.25, 218.29, 0.00, 0.000, 0.000, 0.000, 16:32:05.883, 1680381125883
139, -440.97, -224.53, -229.33, 0.00, 0.000, 0.000, 0.000, 16:32:05.911, 1680381125911
140, -103.93, 57.61, -7.16, 0.00, 0.000, 0.000, 0.000, 16:32:05.911, 1680381125911
141, 509.09, 416.59, 352.59, 0.00, 0.000, 0.000, 0.000, 16:32:05.913, 1680381125913
142, -358.51, -167.06, -222.01, 0.00, 0.000, 0.000, 0.000, 16:32:05.913, 1680381125913
143, -396.09, -154.02, -196.35, 0.00, 0.000, 0.000, 0.000, 16:32:05.914, 1680381125914
144, 455.20, 375.99, 359.45, 0.00, 0.000, 0.000, 0.000, 16:32:05.914, 1680381125914
145, -78.50, -47.90, -25.57, 0.00, 0.000, 0.000, 0.000, 16:32:05.943, 1680381125943
146, -468.11, -249.35, -239.63, 0.00, 0.000, 0.000, 0.000, 16:32:05.943, 1680381125943
147, 249.51, 252.36, 237.99, 0.00, 0.000, 0.000, 0.000, 16:32:05.943, 1680381125943
148, 315.49, 209.33, 216.05, 0.00, 0.000, 0.000, 0.000, 16:32:05.943, 1680381125943
149, -442.42, -248.22, -227.16, 0.00, 0.000, 0.000, 0.000, 16:32:05.943, 1680381125943
150, -101.14, 39.38, 4.86, 0.00, 0.000, 0.000, 0.000, 16:32:05.943, 1680381125943
151, 518.97, 391.22, 371.53, 0.00, 0.000, 0.000, 0.000, 16:32:05.971, 1680381125971
152, -328.36, -186.73, -187.87, 0.00, 0.000, 0.000, 0.000, 16:32:05.971, 1680381125971
153, -356.50, -150.67, -172.34, 0.00, 0.000, 0.000, 0.000, 16:32:05.972, 1680381125972
154, 493.96, 405.43, 378.26, 0.00, 0.000, 0.000, 0.000, 16:32:05.972, 1680381125972
155, -56.35, -20.37, -27.02, 0.00, 0.000, 0.000, 0.000, 16:32:05.973, 1680381125973
156, -474.11, -231.32, -240.56, 0.00, 0.000, 0.000, 0.000, 16:32:05.973, 1680381125973
157, 229.77, 255.43, 220.87, 0.00, 0.000, 0.000, 0.000, 16:32:06.001, 1680381126001
158, 283.48, 218.90, 201.98, 0.00, 0.000, 0.000, 0.000, 16:32:06.001, 1680381126001
159, -463.21, -247.44, -252.34, 0.00, 0.000, 0.000, 0.000, 16:32:06.002, 1680381126002
160, -94.39, 37.37, -7.90, 0.00, 0.000, 0.000, 0.000, 16:32:06.002, 1680381126002
161, 527.52, 395.37, 358.43, 0.00, 0.000, 0.000, 0.000, 16:32:06.003, 1680381126003
162, -323.45, -183.87, -211.12, 0.00, 0.000, 0.000, 0.000, 16:32:06.003, 1680381126003
163, -357.00, -148.20, -199.33, 0.00, 0.000, 0.000, 0.000, 16:32:06.031, 1680381126031
164, 490.64, 409.51, 374.13, 0.00, 0.000, 0.000, 0.000, 16:32:06.031, 1680381126031
165, -47.64, -15.00, -6.42, 0.00, 0.000, 0.000, 0.000, 16:32:06.032, 1680381126032
166, -466.87, -237.26, -207.79, 0.00, 0.000, 0.000, 0.000, 16:32:06.032, 1680381126032
167, 221.23, 254.10, 273.66, 0.00, 0.000, 0.000, 0.000, 16:32:06.033, 1680381126033
168, 283.76, 214.33, 243.84, 0.00, 0.000, 0.000, 0.000, 16:32:06.033, 1680381126033
169, -471.70, -250.52, -224.47, 0.00, 0.000, 0.000, 0.000, 16:32:06.063, 1680381126063
170, -104.59, 33.13, -2.89, 0.00, 0.000, 0.000, 0.000, 16:32:06.063, 1680381126063
171, 515.92, 389.26, 347.17, 0.00, 0.000, 0.000, 0.000, 16:32:06.063, 1680381126063
172, -344.32, -189.64, -228.79, 0.00, 0.000, 0.000, 0.000, 16:32:06.063, 1680381126063
173, -366.27, -146.73, -210.42, 0.00, 0.000, 0.000, 0.000, 16:32:06.064, 1680381126064
174, 490.43, 408.37, 359.55, 0.00, 0.000, 0.000, 0.000, 16:32:06.064, 1680381126064
175, -52.01, -20.18, -26.28, 0.00, 0.000, 0.000, 0.000, 16:32:06.091, 1680381126091
176, -469.22, -236.57, -243.54, 0.00, 0.000, 0.000, 0.000, 16:32:06.091, 1680381126091
177, 245.36, 259.16, 233.20, 0.00, 0.000, 0.000, 0.000, 16:32:06.092, 1680381126092
178, 295.01, 218.34, 208.15, 0.00, 0.000, 0.000, 0.000, 16:32:06.092, 1680381126092
179, -471.09, -251.97, -244.88, 0.00, 0.000, 0.000, 0.000, 16:32:06.093, 1680381126093
180, -111.88, 28.70, -1.25, 0.00, 0.000, 0.000, 0.000, 16:32:06.093, 1680381126093
181, 515.11, 394.30, 378.42, 0.00, 0.000, 0.000, 0.000, 16:32:06.121, 1680381126121
182, -338.59, -185.25, -192.64, 0.00, 0.000, 0.000, 0.000, 16:32:06.121, 1680381126121
183, -368.60, -140.47, -178.97, 0.00, 0.000, 0.000, 0.000, 16:32:06.122, 1680381126122
184, 492.60, 416.40, 374.11, 0.00, 0.000, 0.000, 0.000, 16:32:06.122, 1680381126122
185, -57.30, -15.20, -41.09, 0.00, 0.000, 0.000, 0.000, 16:32:06.123, 1680381126123
186, -480.18, -237.02, -265.00, 0.00, 0.000, 0.000, 0.000, 16:32:06.123, 1680381126123
187, 225.58, 250.02, 188.73, 0.00, 0.000, 0.000, 0.000, 16:32:06.151, 1680381126151
188, 290.36, 211.44, 182.38, 0.00, 0.000, 0.000, 0.000, 16:32:06.151, 1680381126151
189, -460.01, -245.54, -267.42, 0.00, 0.000, 0.000, 0.000, 16:32:06.153, 1680381126153
190, -101.27, 33.27, -14.36, 0.00, 0.000, 0.000, 0.000, 16:32:06.153, 1680381126153
191, 527.11, 398.68, 366.89, 0.00, 0.000, 0.000, 0.000, 16:32:06.159, 1680381126159
192, -339.71, -185.49, -204.19, 0.00, 0.000, 0.000, 0.000, 16:32:06.159, 1680381126159
193, -363.76, -150.96, -186.83, 0.00, 0.000, 0.000, 0.000, 16:32:06.181, 1680381126181
194, 497.15, 407.79, 375.08, 0.00, 0.000, 0.000, 0.000, 16:32:06.181, 1680381126181
195, -46.77, -15.77, -32.98, 0.00, 0.000, 0.000, 0.000, 16:32:06.182, 1680381126182
196, -465.81, -241.28, -254.98, 0.00, 0.000, 0.000, 0.000, 16:32:06.182, 1680381126182
197, 228.67, 248.74, 205.01, 0.00, 0.000, 0.000, 0.000, 16:32:06.183, 1680381126183
198, 288.99, 205.33, 176.53, 0.00, 0.000, 0.000, 0.000, 16:32:06.183, 1680381126183
199, -468.41, -250.69, -267.37, 0.00, 0.000, 0.000, 0.000, 16:32:06.211, 1680381126211
200, -109.96, 32.74, -7.42, 0.00, 0.000, 0.000, 0.000, 16:32:06.211, 1680381126211
0, 528.44, 396.83, 375.21, 0.00, 0.000, 0.000, 0.000, 16:32:06.213, 1680381126213
1, -320.34, -182.42, -182.80, 0.00, 0.000, 0.000, 0.000, 16:32:06.214, 1680381126214
2, -363.01, -156.65, -169.46, 0.00, 0.000, 0.000, 0.000, 16:32:06.214, 1680381126214
3, 486.25, 407.69, 395.72, 0.00, 0.000, 0.000, 0.000, 16:32:06.214, 1680381126214
4, -43.18, -12.32, -5.43, 0.00, 0.000, 0.000, 0.000, 16:32:06.214, 1680381126214
5, -468.70, -235.18, -231.46, 0.00, 0.000, 0.000, 0.000, 16:32:06.241, 1680381126241
6, 232.90, 258.28, 224.82, 0.00, 0.000, 0.000, 0.000, 16:32:06.241, 1680381126241
7, 296.05, 218.56, 203.55, 0.00, 0.000, 0.000, 0.000, 16:32:06.242, 1680381126242
8, -445.48, -239.09, -241.36, 0.00, 0.000, 0.000, 0.000, 16:32:06.242, 1680381126242
9, -97.44, 45.28, -1.60, 0.00, 0.000, 0.000, 0.000, 16:32:06.272, 1680381126272
10, 540.95, 407.68, 386.37, 0.00, 0.000, 0.000, 0.000, 16:32:06.272, 1680381126272
11, -312.08, -171.61, -179.81, 0.00, 0.000, 0.000, 0.000, 16:32:06.273, 1680381126273
12, -345.57, -137.70, -159.76, 0.00, 0.000, 0.000, 0.000, 16:32:06.273, 1680381126273
13, 497.69, 410.92, 389.31, 0.00, 0.000, 0.000, 0.000, 16:32:06.274, 1680381126274
14, -27.86, -8.16, 2.73, 0.00, 0.000, 0.000, 0.000, 16:32:06.274, 1680381126274
15, -457.01, -236.16, -228.48, 0.00, 0.000, 0.000, 0.000, 16:32:06.275, 1680381126275
16, 223.42, 241.81, 217.29, 0.00, 0.000, 0.000, 0.000, 16:32:06.275, 1680381126275
17, 308.65, 225.56, 219.32, 0.00, 0.000, 0.000, 0.000, 16:32:06.302, 1680381126302
18, -456.98, -251.33, -227.09, 0.00, 0.000, 0.000, 0.000, 16:32:06.302, 1680381126302
19, -106.32, 26.56, -4.45, 0.00, 0.000, 0.000, 0.000, 16:32:06.302, 1680381126302
20, 530.86, 395.29, 366.41, 0.00, 0.000, 0.000, 0.000, 16:32:06.302, 1680381126302
21, -321.62, -176.73, -200.55, 0.00, 0.000, 0.000, 0.000, 16:32:06.331, 1680381126331
22, -363.53, -159.49, -202.14, 0.00, 0.000, 0.000, 0.000, 16:32:06.331, 1680381126331
23, 484.85, 399.16, 363.22, 0.00, 0.000, 0.000, 0.000, 16:32:06.332, 1680381126332
24, -38.68, -14.54, -30.00, 0.00, 0.000, 0.000, 0.000, 16:32:06.332, 1680381126332
25, -471.16, -243.47, -257.98, 0.00, 0.000, 0.000, 0.000, 16:32:06.333, 1680381126333
26, 219.01, 240.35, 197.99, 0.00, 0.000, 0.000, 0.000, 16:32:06.333, 1680381126333
27, 306.22, 214.65, 211.90, 0.00, 0.000, 0.000, 0.000, 16:32:06.334, 1680381126334
28, -459.91, -266.55, -261.10, 0.00, 0.000, 0.000, 0.000, 16:32:06.334, 1680381126334
29, -109.58, 18.12, -10.88, 0.00, 0.000, 0.000, 0.000, 16:32:06.361, 1680381126361
30, 501.58, 380.05, 364.63, 0.00, 0.000, 0.000, 0.000, 16:32:06.361, 1680381126361
31, -328.44, -186.79, -185.77, 0.00, 0.000, 0.000, 0.000, 16:32:06.362, 1680381126362
32, -369.69, -159.68, -186.21, 0.00, 0.000, 0.000, 0.000, 16:32:06.362, 1680381126362
33, 482.92, 399.50, 376.04, 0.00, 0.000, 0.000, 0.000, 16:32:06.391, 1680381126391
34, -55.70, -25.65, -34.50, 0.00, 0.000, 0.000, 0.000, 16:32:06.391, 1680381126391
35, -472.70, -238.99, -251.84, 0.00, 0.000, 0.000, 0.000, 16:32:06.392, 1680381126392
36, 209.64, 242.73, 204.74, 0.00, 0.000, 0.000, 0.000, 16:32:06.392, 1680381126392
37, 280.99, 210.85, 194.45, 0.00, 0.000, 0.000, 0.000, 16:32:06.393, 1680381126393
38, -444.10, -252.19, -242.38, 0.00, 0.000, 0.000, 0.000, 16:32:06.393, 1680381126393
39, -117.21, 19.03, -10.12, 0.00, 0.000, 0.000, 0.000, 16:32:06.394, 1680381126394
40, 513.35, 387.14, 379.26, 0.00, 0.000, 0.000, 0.000, 16:32:06.394, 1680381126394
41, -330.06, -186.40, -181.34, 0.00, 0.000, 0.000, 0.000, 16:32:06.421, 1680381126421
42, -360.03, -142.26, -159.41, 0.00, 0.000, 0.000, 0.000, 16:32:06.421, 1680381126421
43, 496.63, 413.11, 383.49, 0.00, 0.000, 0.000, 0.000, 16:32:06.422, 1680381126422
44, -31.47, -4.33, -20.55, 0.00, 0.000, 0.000, 0.000, 16:32:06.422, 1680381126422
45, -473.19, -242.12, -264.50, 0.00, 0.000, 0.000, 0.000, 16:32:06.451, 1680381126451
46, 220.62, 251.29, 191.67, 0.00, 0.000, 0.000, 0.000, 16:32:06.451, 1680381126451
47, 298.30, 220.28, 181.42, 0.00, 0.000, 0.000, 0.000, 16:32:06.452, 1680381126452
48, -448.26, -245.75, -270.20, 0.00, 0.000, 0.000, 0.000, 16:32:06.452, 1680381126452
49, -102.56, 28.73, -26.76, 0.00, 0.000, 0.000, 0.000, 16:32:06.453, 1680381126453
50, 545.18, 403.72, 363.74, 0.00, 0.000, 0.000, 0.000, 16:32:06.453, 1680381126453
51, -302.31, -171.95, -189.06, 0.00, 0.000, 0.000, 0.000, 16:32:06.454, 1680381126454
52, -351.37, -144.54, -192.55, 0.00, 0.000, 0.000, 0.000, 16:32:06.454, 1680381126454
53, 510.27, 413.43, 375.27, 0.00, 0.000, 0.000, 0.000, 16:32:06.481, 1680381126481
54, -30.74, -12.86, -32.25, 0.00, 0.000, 0.000, 0.000, 16:32:06.481, 1680381126481
55, -457.64, -230.20, -257.29, 0.00, 0.000, 0.000, 0.000, 16:32:06.482, 1680381126482
56, 221.05, 241.99, 185.10, 0.00, 0.000, 0.000, 0.000, 16:32:06.482, 1680381126482
57, 315.50, 225.34, 184.02, 0.00, 0.000, 0.000, 0.000, 16:32:06.513, 1680381126513
58, -443.12, -248.51, -269.36, 0.00, 0.000, 0.000, 0.000, 16:32:06.513, 1680381126513
59, -111.31, 27.31, -46.02, 0.00, 0.000, 0.000, 0.000, 16:32:06.515, 1680381126515
60, 540.80, 402.02, 352.93, 0.00, 0.000, 0.000, 0.000, 16:32:06.515, 1680381126515
61, -315.23, -177.07, -220.48, 0.00, 0.000, 0.000, 0.000, 16:32:06.516, 1680381126516
62, -363.34, -146.83, -209.36, 0.00, 0.000, 0.000, 0.000, 16:32:06.516, 1680381126516
63, 495.10, 405.48, 343.01, 0.00, 0.000, 0.000, 0.000, 16:32:06.516, 1680381126516
64, -21.07, 1.15, -44.36, 0.00, 0.000, 0.000, 0.000, 16:32:06.516, 1680381126516
65, -464.45, -239.90, -269.10, 0.00, 0.000, 0.000, 0.000, 16:32:06.542, 1680381126542
66, 220.04, 244.22, 191.80, 0.00, 0.000, 0.000, 0.000, 16:32:06.542, 1680381126542
67, 307.58, 212.47, 193.40, 0.00, 0.000, 0.000, 0.000, 16:32:06.542, 1680381126542
68, -452.02, -256.44, -265.63, 0.00, 0.000, 0.000, 0.000, 16:32:06.542, 1680381126542
69, -113.14, 32.81, -20.40, 0.00, 0.000, 0.000, 0.000, 16:32:06.571, 1680381126571
70, 528.20, 403.18, 371.18, 0.00, 0.000, 0.000, 0.000, 16:32:06.571, 1680381126571
71, -310.50, -171.23, -185.00, 0.00, 0.000, 0.000, 0.000, 16:32:06.572, 1680381126572
72, -356.81, -147.70, -178.56, 0.00, 0.000, 0.000, 0.000, 16:32:06.572, 1680381126572
73, 499.22, 419.22, 372.79, 0.00, 0.000, 0.000, 0.000, 16:32:06.573, 1680381126573
74, -18.11, 3.57, -14.59, 0.00, 0.000, 0.000, 0.000, 16:32:06.573, 1680381126573
75, -465.45, -240.67, -262.71, 0.00, 0.000, 0.000, 0.000, 16:32:06.574, 1680381126574
76, 212.53, 239.70, 197.06, 0.00, 0.000, 0.000, 0.000, 16:32:06.574, 1680381126574
77, 303.54, 221.08, 194.15, 0.00, 0.000, 0.000, 0.000, 16:32:06.601, 1680381126601
78, -449.84, -243.24, -250.36, 0.00, 0.000, 0.000, 0.000, 16:32:06.601, 1680381126601
79, -108.81, 31.29, -6.39, 0.00, 0.000, 0.000, 0.000, 16:32:06.602, 1680381126602
80, 543.00, 400.62, 379.21, 0.00, 0.000, 0.000, 0.000, 16:32:06.602, 1680381126602
81, -304.40, -178.95, -170.98, 0.00, 0.000, 0.000, 0.000, 16:32:06.631, 1680381126631
82, -361.49, -153.15, -177.17, 0.00, 0.000, 0.000, 0.000, 16:32:06.631, 1680381126631
83, 487.44, 405.66, 373.26, 0.00, 0.000, 0.000, 0.000, 16:32:06.632, 1680381126632
84, -37.76, -13.64, -29.81, 0.00, 0.000, 0.000, 0.000, 16:32:06.632, 1680381126632
85, -470.15, -235.88, -259.27, 0.00, 0.000, 0.000, 0.000, 16:32:06.633, 1680381126633
86, 215.31, 242.71, 201.83, 0.00, 0.000, 0.000, 0.000, 16:32:06.633, 1680381126633
87, 320.48, 240.33, 205.60, 0.00, 0.000, 0.000, 0.000, 16:32:06.634, 1680381126634
88, -437.51, -238.14, -238.18, 0.00, 0.000, 0.000, 0.000, 16:32:06.634, 1680381126634
89, -120.31, 27.84, -13.76, 0.00, 0.000, 0.000, 0.000, 16:32:06.661, 1680381126661
90, 539.19, 405.24, 383.68, 0.00, 0.000, 0.000, 0.000, 16:32:06.661, 1680381126661
91, -300.92, -168.73, -169.76, 0.00, 0.000, 0.000, 0.000, 16:32:06.662, 1680381126662
92, -352.05, -148.00, -171.24, 0.00, 0.000, 0.000, 0.000, 16:32:06.662, 1680381126662
93, 501.32, 407.06, 390.15, 0.00, 0.000, 0.000, 0.000, 16:32:06.692, 1680381126692
94, -11.42, -5.24, -5.59, 0.00, 0.000, 0.000, 0.000, 16:32:06.692, 1680381126692
95, -459.53, -233.67, -242.11, 0.00, 0.000, 0.000, 0.000, 16:32:06.693, 1680381126693
96, 219.09, 242.65, 198.70, 0.00, 0.000, 0.000, 0.000, 16:32:06.693, 1680381126693
97, 317.89, 235.81, 200.37, 0.00, 0.000, 0.000, 0.000, 16:32:06.693, 1680381126693
98, -443.95, -239.71, -252.81, 0.00, 0.000, 0.000, 0.000, 16:32:06.693, 1680381126693
99, -112.87, 26.55, -32.84, 0.00, 0.000, 0.000, 0.000, 16:32:06.694, 1680381126694
100, 549.08, 409.02, 367.38, 0.00, 0.000, 0.000, 0.000, 16:32:06.694, 1680381126694
101, -311.17, -180.14, -208.37, 0.00, 0.000, 0.000, 0.000, 16:32:06.722, 1680381126722
102, -355.18, -155.20, -190.04, 0.00, 0.000, 0.000, 0.000, 16:32:06.722, 1680381126722
103, 492.99, 401.35, 372.25, 0.00, 0.000, 0.000, 0.000, 16:32:06.722, 1680381126722
104, -13.43, 2.51, -12.44, 0.00, 0.000, 0.000, 0.000, 16:32:06.722, 1680381126722
105, -442.76, -228.41, -237.18, 0.00, 0.000, 0.000, 0.000, 16:32:06.751, 1680381126751
106, 226.68, 257.96, 196.68, 0.00, 0.000, 0.000, 0.000, 16:32:06.751, 1680381126751
107, 315.45, 251.79, 202.80, 0.00, 0.000, 0.000, 0.000, 16:32:06.753, 1680381126753
108, -468.52, -231.14, -289.63, 0.00, 0.000, 0.000, 0.000, 16:32:06.753, 1680381126753
109, -140.46, 44.68, -55.51, 0.00, 0.000, 0.000, 0.000, 16:32:06.753, 1680381126753
110, 495.18, 387.06, 332.02, 0.00, 0.000, 0.000, 0.000, 16:32:06.753, 1680381126753
111, -360.15, -226.01, -229.33, 0.00, 0.000, 0.000, 0.000, 16:32:06.754, 1680381126754
112, -391.88, -195.90, -210.01, 0.00, 0.000, 0.000, 0.000, 16:32:06.754, 1680381126754
113, 475.94, 370.65, 354.37, 0.00, 0.000, 0.000, 0.000, 16:32:06.782, 1680381126782
114, -8.41, -7.29, -12.75, 0.00, 0.000, 0.000, 0.000, 16:32:06.782, 1680381126782
115, -453.07, -243.20, -250.26, 0.00, 0.000, 0.000, 0.000, 16:32:06.783, 1680381126783
116, 234.69, 236.78, 206.27, 0.00, 0.000, 0.000, 0.000, 16:32:06.783, 1680381126783
117, 330.86, 224.36, 217.75, 0.00, 0.000, 0.000, 0.000, 16:32:06.811, 1680381126811
118, -449.31, -249.59, -247.55, 0.00, 0.000, 0.000, 0.000, 16:32:06.811, 1680381126811
119, -127.03, 15.30, -22.45, 0.00, 0.000, 0.000, 0.000, 16:32:06.812, 1680381126812
120, 516.57, 397.54, 369.87, 0.00, 0.000, 0.000, 0.000, 16:32:06.812, 1680381126812
121, -314.88, -169.58, -185.63, 0.00, 0.000, 0.000, 0.000, 16:32:06.813, 1680381126813
122, -369.09, -153.65, -192.93, 0.00, 0.000, 0.000, 0.000, 16:32:06.813, 1680381126813
123, 484.17, 405.96, 370.52, 0.00, 0.000, 0.000, 0.000, 16:32:06.814, 1680381126814
124, -30.24, -8.71, -19.07, 0.00, 0.000, 0.000, 0.000, 16:32:06.814, 1680381126814
125, -473.64, -245.91, -257.03, 0.00, 0.000, 0.000, 0.000, 16:32:06.841, 1680381126841
126, 213.20, 238.27, 196.73, 0.00, 0.000, 0.000, 0.000, 16:32:06.841, 1680381126841
127, 314.54, 223.36, 204.46, 0.00, 0.000, 0.000, 0.000, 16:32:06.842, 1680381126842
128, -456.68, -246.04, -271.73, 0.00, 0.000, 0.000, 0.000, 16:32:06.842, 1680381126842
129, -123.84, 25.07, -40.04, 0.00, 0.000, 0.000, 0.000, 16:32:06.871, 1680381126871
130, 545.20, 413.60, 364.58, 0.00, 0.000, 0.000, 0.000, 16:32:06.871, 1680381126871
131, -301.84, -166.20, -189.38, 0.00, 0.000, 0.000, 0.000, 16:32:06.872, 1680381126872
132, -364.93, -151.13, -175.11, 0.00, 0.000, 0.000, 0.000, 16:32:06.872, 1680381126872
133, 494.74, 414.32, 411.03, 0.00, 0.000, 0.000, 0.000, 16:32:06.873, 1680381126873
134, -11.48, 11.44, 47.87, 0.00, 0.000, 0.000, 0.000, 16:32:06.873, 1680381126873
135, -462.18, -229.21, -195.89, 0.00, 0.000, 0.000, 0.000, 16:32:06.874, 1680381126874
136, 208.32, 242.55, 234.75, 0.00, 0.000, 0.000, 0.000, 16:32:06.874, 1680381126874
137, 313.14, 237.71, 221.32, 0.00, 0.000, 0.000, 0.000, 16:32:06.901, 1680381126901
138, -448.72, -242.42, -269.53, 0.00, 0.000, 0.000, 0.000, 16:32:06.901, 1680381126901
139, -123.11, 27.57, -56.32, 0.00, 0.000, 0.000, 0.000, 16:32:06.902, 1680381126902
140, 534.12, 411.03, 345.40, 0.00, 0.000, 0.000, 0.000, 16:32:06.902, 1680381126902
141, -306.42, -166.45, -202.34, 0.00, 0.000, 0.000, 0.000, 16:32:06.931, 1680381126931
142, -364.61, -150.32, -187.59, 0.00, 0.000, 0.000, 0.000, 16:32:06.931, 1680381126931
143, 486.41, 408.62, 380.75, 0.00, 0.000, 0.000, 0.000, 16:32:06.932, 1680381126932
144, -4.40, 13.53, 12.51, 0.00, 0.000, 0.000, 0.000, 16:32:06.932, 1680381126932
145, -455.53, -230.21, -228.09, 0.00, 0.000, 0.000, 0.000, 16:32:06.934, 1680381126934
146, 207.67, 244.40, 215.23, 0.00, 0.000, 0.000, 0.000, 16:32:06.934, 1680381126934
147, 322.71, 237.67, 225.85, 0.00, 0.000, 0.000, 0.000, 16:32:06.934, 1680381126934
148, -448.05, -237.02, -241.22, 0.00, 0.000, 0.000, 0.000, 16:32:06.934, 1680381126934
149, -117.70, 31.77, -20.79, 0.00, 0.000, 0.000, 0.000, 16:32:06.962, 1680381126962
150, 539.92, 406.86, 381.43, 0.00, 0.000, 0.000, 0.000, 16:32:06.962, 1680381126962
151, -310.25, -169.04, -183.75, 0.00, 0.000, 0.000, 0.000, 16:32:06.963, 1680381126963
152, -371.49, -153.11, -192.19, 0.00, 0.000, 0.000, 0.000, 16:32:06.963, 1680381126963
153, 490.05, 416.20, 378.07, 0.00, 0.000, 0.000, 0.000, 16:32:06.991, 1680381126991
154, -24.17, 0.22, -14.52, 0.00, 0.000, 0.000, 0.000, 16:32:06.991, 1680381126991
155, -464.26, -232.30, -251.60, 0.00, 0.000, 0.000, 0.000, 16:32:06.992, 1680381126992
156, 204.93, 238.46, 198.68, 0.00, 0.000, 0.000, 0.000, 16:32:06.992, 1680381126992
157, 325.38, 236.81, 220.06, 0.00, 0.000, 0.000, 0.000, 16:32:06.993, 1680381126993
158, -446.92, -242.16, -247.31, 0.00, 0.000, 0.000, 0.000, 16:32:06.993, 1680381126993
159, -123.00, 21.33, -24.08, 0.00, 0.000, 0.000, 0.000, 16:32:06.999, 1680381126999
160, 534.52, 401.02, 378.29, 0.00, 0.000, 0.000, 0.000, 16:32:06.999, 1680381126999
161, -310.39, -175.25, -184.23, 0.00, 0.000, 0.000, 0.000, 16:32:07.021, 1680381127021
162, -370.33, -158.03, -188.22, 0.00, 0.000, 0.000, 0.000, 16:32:07.021, 1680381127021
163, 482.76, 398.02, 368.23, 0.00, 0.000, 0.000, 0.000, 16:32:07.022, 1680381127022
164, -11.86, 1.80, -7.33, 0.00, 0.000, 0.000, 0.000, 16:32:07.022, 1680381127022
165, -473.37, -238.48, -256.68, 0.00, 0.000, 0.000, 0.000, 16:32:07.051, 1680381127051
166, 201.89, 233.67, 184.64, 0.00, 0.000, 0.000, 0.000, 16:32:07.051, 1680381127051
167, 320.67, 232.54, 212.48, 0.00, 0.000, 0.000, 0.000, 16:32:07.052, 1680381127052
168, -449.92, -246.07, -246.32, 0.00, 0.000, 0.000, 0.000, 16:32:07.052, 1680381127052
169, -134.96, 8.67, -20.84, 0.00, 0.000, 0.000, 0.000, 16:32:07.053, 1680381127053
170, 529.51, 396.41, 386.59, 0.00, 0.000, 0.000, 0.000, 16:32:07.053, 1680381127053
171, -305.24, -180.17, -167.33, 0.00, 0.000, 0.000, 0.000, 16:32:07.054, 1680381127054
172, -382.21, -168.43, -181.85, 0.00, 0.000, 0.000, 0.000, 16:32:07.054, 1680381127054
173, 478.35, 398.05, 378.22, 0.00, 0.000, 0.000, 0.000, 16:32:07.082, 1680381127082
174, -25.10, -0.47, -14.15, 0.00, 0.000, 0.000, 0.000, 16:32:07.082, 1680381127082
175, -485.03, -255.11, -279.42, 0.00, 0.000, 0.000, 0.000, 16:32:07.082, 1680381127082
176, 185.09, 224.80, 178.21, 0.00, 0.000, 0.000, 0.000, 16:32:07.082, 1680381127082
177, 293.64, 221.05, 196.00, 0.00, 0.000, 0.000, 0.000, 16:32:07.113, 1680381127113
178, -461.73, -261.92, -260.40, 0.00, 0.000, 0.000, 0.000, 16:32:07.113, 1680381127113
179, -136.44, 5.08, -34.19, 0.00, 0.000, 0.000, 0.000, 16:32:07.113, 1680381127113
180, 538.90, 400.29, 376.16, 0.00, 0.000, 0.000, 0.000, 16:32:07.113, 1680381127113
181, -324.90, -184.25, -192.88, 0.00, 0.000, 0.000, 0.000, 16:32:07.114, 1680381127114
182, -383.33, -170.05, -193.28, 0.00, 0.000, 0.000, 0.000, 16:32:07.114, 1680381127114
183, 469.26, 394.36, 369.81, 0.00, 0.000, 0.000, 0.000, 16:32:07.115, 1680381127115
184, -23.86, -0.93, 1.29, 0.00, 0.000, 0.000, 0.000, 16:32:07.115, 1680381127115
185, -477.09, -241.45, -240.44, 0.00, 0.000, 0.000, 0.000, 16:32:07.142, 1680381127142
186, 193.57, 229.80, 196.34, 0.00, 0.000, 0.000, 0.000, 16:32:07.142, 1680381127142
187, 319.98, 240.67, 215.43, 0.00, 0.000, 0.000, 0.000, 16:32:07.142, 1680381127142
188, -458.93, -242.67, -262.11, 0.00, 0.000, 0.000, 0.000, 16:32:07.142, 1680381127142
189, -127.66, 17.06, -29.95, 0.00, 0.000, 0.000, 0.000, 16:32:07.172, 1680381127172
190, 533.85, 402.74, 377.45, 0.00, 0.000, 0.000, 0.000, 16:32:07.172, 1680381127172
191, -299.70, -170.85, -171.52, 0.00, 0.000, 0.000, 0.000, 16:32:07.172, 1680381127172
192, -373.16, -160.81, -182.91, 0.00, 0.000, 0.000, 0.000, 16:32:07.172, 1680381127172
193, 480.90, 399.07, 368.45, 0.00, 0.000, 0.000, 0.000, 16:32:07.173, 1680381127173
194, -9.80, 14.10, -2.74, 0.00, 0.000, 0.000, 0.000, 16:32:07.173, 1680381127173
195, -466.02, -237.64, -252.29, 0.00, 0.000, 0.000, 0.000, 16:32:07.174, 1680381127174
196, 192.25, 233.70, 186.55, 0.00, 0.000, 0.000, 0.000, 16:32:07.174, 1680381127174
197, 320.62, 238.66, 215.69, 0.00, 0.000, 0.000, 0.000, 16:32:07.202, 1680381127202
198, -447.90, -246.75, -240.92, 0.00, 0.000, 0.000, 0.000, 16:32:07.202, 1680381127202
199, -135.84, 12.55, -25.32, 0.00, 0.000, 0.000, 0.000, 16:32:07.203, 1680381127203
200, 536.91, 406.85, 385.42, 0.00, 0.000, 0.000, 0.000, 16:32:07.203, 1680381127203
0, -301.47, -170.03, -178.89, 0.00, 0.000, 0.000, 0.000, 16:32:07.203, 1680381127203
1, -378.07, -157.77, -192.46, 0.00, 0.000, 0.000, 0.000, 16:32:07.231, 1680381127231
2, 467.44, 392.88, 358.45, 0.00, 0.000, 0.000, 0.000, 16:32:07.231, 1680381127231
3, -16.01, 0.56, -4.21, 0.00, 0.000, 0.000, 0.000, 16:32:07.232, 1680381127232
4, -465.30, -238.50, -246.98, 0.00, 0.000, 0.000, 0.000, 16:32:07.232, 1680381127232
5, 194.07, 229.60, 197.77, 0.00, 0.000, 0.000, 0.000, 16:32:07.233, 1680381127233
6, 320.53, 241.40, 229.34, 0.00, 0.000, 0.000, 0.000, 16:32:07.233, 1680381127233
7, -444.92, -243.03, -246.39, 0.00, 0.000, 0.000, 0.000, 16:32:07.261, 1680381127261
8, -142.65, 11.01, -28.30, 0.00, 0.000, 0.000, 0.000, 16:32:07.261, 1680381127261
9, 542.33, 407.74, 388.51, 0.00, 0.000, 0.000, 0.000, 16:32:07.262, 1680381127262
10, -285.63, -164.01, -167.04, 0.00, 0.000, 0.000, 0.000, 16:32:07.262, 1680381127262
11, -362.10, -156.92, -185.75, 0.00, 0.000, 0.000, 0.000, 16:32:07.263, 1680381127263
12, 474.86, 403.21, 364.49, 0.00, 0.000, 0.000, 0.000, 16:32:07.263, 1680381127263
13, -7.87, 13.20, -7.12, 0.00, 0.000, 0.000, 0.000, 16:32:07.291, 1680381127291
14, -451.36, -226.97, -244.70, 0.00, 0.000, 0.000, 0.000, 16:32:07.291, 1680381127291
15, 199.50, 229.24, 185.92, 0.00, 0.000, 0.000, 0.000, 16:32:07.292, 1680381127292
16, 332.59, 239.57, 225.09, 0.00, 0.000, 0.000, 0.000, 16:32:07.292, 1680381127292
17, -449.39, -245.25, -249.76, 0.00, 0.000, 0.000, 0.000, 16:32:07.293, 1680381127293
18, -128.78, 13.90, -31.50, 0.00, 0.000, 0.000, 0.000, 16:32:07.293, 1680381127293
19, 546.39, 404.16, 379.70, 0.00, 0.000, 0.000, 0.000, 16:32:07.321, 1680381127321
20, -303.26, -168.46, -179.07, 0.00, 0.000, 0.000, 0.000, 16:32:07.321, 1680381127321
21, -369.38, -161.55, -183.03, 0.00, 0.000, 0.000, 0.000, 16:32:07.322, 1680381127322
22, 480.18, 396.47, 370.78, 0.00, 0.000, 0.000, 0.000, 16:32:07.322, 1680381127322
23, -3.74, 12.90, -7.17, 0.00, 0.000, 0.000, 0.000, 16:32:07.323, 1680381127323
24, -459.95, -231.85, -252.22, 0.00, 0.000, 0.000, 0.000, 16:32:07.323, 1680381127323
25, 201.64, 234.33, 202.76, 0.00, 0.000, 0.000, 0.000, 16:32:07.351, 1680381127351
26, 325.20, 236.71, 218.79, 0.00, 0.000, 0.000, 0.000, 16:32:07.351, 1680381127351
27, -439.99, -241.65, -243.61, 0.00, 0.000, 0.000, 0.000, 16:32:07.353, 1680381127353
28, -141.75, 1.16, -40.52, 0.00, 0.000, 0.000, 0.000, 16:32:07.353, 1680381127353
29, 540.01, 401.86, 369.11, 0.00, 0.000, 0.000, 0.000, 16:32:07.359, 1680381127359
30, -298.12, -171.41, -174.40, 0.00, 0.000, 0.000, 0.000, 16:32:07.359, 1680381127359
31, -386.77, -160.29, -199.63, 0.00, 0.000, 0.000, 0.000, 16:32:07.382, 1680381127382
32, 484.90, 402.24, 364.40, 0.00, 0.000, 0.000, 0.000, 16:32:07.382, 1680381127382
33, 1.59, 9.88, -12.70, 0.00, 0.000, 0.000, 0.000, 16:32:07.382, 1680381127382
34, -473.02, -253.63, -244.86, 0.00, 0.000, 0.000, 0.000, 16:32:07.382, 1680381127382
35, 184.83, 214.70, 171.79, 0.00, 0.000, 0.000, 0.000, 16:32:07.383, 1680381127383
36, 319.78, 233.54, 222.38, 0.00, 0.000, 0.000, 0.000, 16:32:07.383, 1680381127383
37, -450.13, -248.92, -255.94, 0.00, 0.000, 0.000, 0.000, 16:32:07.412, 1680381127412
38, -135.73, 3.52, -28.58, 0.00, 0.000, 0.000, 0.000, 16:32:07.412, 1680381127412
39, 539.98, 400.40, 385.78, 0.00, 0.000, 0.000, 0.000, 16:32:07.413, 1680381127413
40, -301.71, -168.99, -176.42, 0.00, 0.000, 0.000, 0.000, 16:32:07.413, 1680381127413
41, -373.60, -163.28, -180.02, 0.00, 0.000, 0.000, 0.000, 16:32:07.414, 1680381127414
42, 440.72, 388.26, 358.02, 0.00, 0.000, 0.000, 0.000, 16:32:07.414, 1680381127414
43, -18.28, 6.30, -3.34, 0.00, 0.000, 0.000, 0.000, 16:32:07.441, 1680381127441
44, -479.12, -258.14, -261.37, 0.00, 0.000, 0.000, 0.000, 16:32:07.441, 1680381127441
45, 184.13, 224.51, 177.59, 0.00, 0.000, 0.000, 0.000, 16:32:07.443, 1680381127443
46, 304.85, 226.03, 201.86, 0.00, 0.000, 0.000, 0.000, 16:32:07.443, 1680381127443
47, -450.85, -250.39, -258.11, 0.00, 0.000, 0.000, 0.000, 16:32:07.443, 1680381127443
48, -149.86, -2.32, -44.33, 0.00, 0.000, 0.000, 0.000, 16:32:07.443, 1680381127443
49, 523.33, 399.11, 358.20, 0.00, 0.000, 0.000, 0.000, 16:32:07.471, 1680381127471
50, -298.42, -177.19, -192.01, 0.00, 0.000, 0.000, 0.000, 16:32:07.471, 1680381127471
51, -384.83, -170.69, -216.05, 0.00, 0.000, 0.000, 0.000, 16:32:07.472, 1680381127472
52, 461.92, 388.85, 348.66, 0.00, 0.000, 0.000, 0.000, 16:32:07.472, 1680381127472
53, -11.65, 8.21, -20.92, 0.00, 0.000, 0.000, 0.000, 16:32:07.473, 1680381127473
54, -463.19, -236.02, -258.64, 0.00, 0.000, 0.000, 0.000, 16:32:07.473, 1680381127473
55, 188.17, 222.81, 172.32, 0.00, 0.000, 0.000, 0.000, 16:32:07.502, 1680381127502
56, 343.87, 247.04, 220.63, 0.00, 0.000, 0.000, 0.000, 16:32:07.502, 1680381127502
57, -436.95, -246.58, -251.25, 0.00, 0.000, 0.000, 0.000, 16:32:07.503, 1680381127503
58, -135.46, 7.73, -44.95, 0.00, 0.000, 0.000, 0.000, 16:32:07.503, 1680381127503
59, 554.46, 415.27, 385.82, 0.00, 0.000, 0.000, 0.000, 16:32:07.503, 1680381127503
60, -284.88, -169.44, -177.22, 0.00, 0.000, 0.000, 0.000, 16:32:07.503, 1680381127503
61, -367.16, -157.31, -192.08, 0.00, 0.000, 0.000, 0.000, 16:32:07.531, 1680381127531
62, 485.91, 399.40, 363.73, 0.00, 0.000, 0.000, 0.000, 16:32:07.531, 1680381127531
63, 4.91, 10.80, -17.02, 0.00, 0.000, 0.000, 0.000, 16:32:07.532, 1680381127532
64, -457.39, -239.13, -267.17, 0.00, 0.000, 0.000, 0.000, 16:32:07.532, 1680381127532
65, 192.55, 220.65, 171.13, 0.00, 0.000, 0.000, 0.000, 16:32:07.533, 1680381127533
66, 348.55, 247.74, 220.43, 0.00, 0.000, 0.000, 0.000, 16:32:07.533, 1680381127533
67, -432.21, -243.12, -256.53, 0.00, 0.000, 0.000, 0.000, 16:32:07.563, 1680381127563
68, -135.18, -3.41, -50.05, 0.00, 0.000, 0.000, 0.000, 16:32:07.563, 1680381127563
69, 545.98, 404.60, 374.54, 0.00, 0.000, 0.000, 0.000, 16:32:07.563, 1680381127563
70, -288.37, -158.54, -185.95, 0.00, 0.000, 0.000, 0.000, 16:32:07.563, 1680381127563
71, -372.51, -146.46, -209.03, 0.00, 0.000, 0.000, 0.000, 16:32:07.564, 1680381127564
72, 462.82, 422.32, 335.96, 0.00, 0.000, 0.000, 0.000, 16:32:07.564, 1680381127564
73, -21.64, 39.33, -34.91, 0.00, 0.000, 0.000, 0.000, 16:32:07.591, 1680381127591
74, -503.28, -230.91, -294.01, 0.00, 0.000, 0.000, 0.000, 16:32:07.591, 1680381127591
75, 140.54, 202.93, 137.07, 0.00, 0.000, 0.000, 0.000, 16:32:07.592, 1680381127592
76, 294.61, 197.93, 200.37, 0.00, 0.000, 0.000, 0.000, 16:32:07.592, 1680381127592
77, -475.67, -290.88, -261.56, 0.00, 0.000, 0.000, 0.000, 16:32:07.593, 1680381127593
78, -148.55, -13.67, -27.44, 0.00, 0.000, 0.000, 0.000, 16:32:07.593, 1680381127593
79, 560.60, 401.33, 408.47, 0.00, 0.000, 0.000, 0.000, 16:32:07.621, 1680381127621
80, -267.07, -156.39, -152.02, 0.00, 0.000, 0.000, 0.000, 16:32:07.621, 1680381127621
81, -343.19, -150.22, -167.27, 0.00, 0.000, 0.000, 0.000, 16:32:07.622, 1680381127622
82, 484.39, 402.76, 374.83, 0.00, 0.000, 0.000, 0.000, 16:32:07.622, 1680381127622
83, 16.86, 20.19, 11.90, 0.00, 0.000, 0.000, 0.000, 16:32:07.623, 1680381127623
84, -462.02, -243.59, -252.73, 0.00, 0.000, 0.000, 0.000, 16:32:07.623, 1680381127623
85, 180.42, 220.36, 172.99, 0.00, 0.000, 0.000, 0.000, 16:32:07.651, 1680381127651
86, 354.29, 253.54, 239.28, 0.00, 0.000, 0.000, 0.000, 16:32:07.651, 1680381127651
87, -439.56, -241.86, -241.35, 0.00, 0.000, 0.000, 0.000, 16:32:07.652, 1680381127652
88, -136.00, 7.11, -36.42, 0.00, 0.000, 0.000, 0.000, 16:32:07.652, 1680381127652
89, 554.70, 409.92, 388.30, 0.00, 0.000, 0.000, 0.000, 16:32:07.659, 1680381127659
90, -282.12, -159.09, -170.14, 0.00, 0.000, 0.000, 0.000, 16:32:07.659, 1680381127659
91, -366.47, -157.53, -183.57, 0.00, 0.000, 0.000, 0.000, 16:32:07.681, 1680381127681
92, 475.08, 398.57, 364.64, 0.00, 0.000, 0.000, 0.000, 16:32:07.681, 1680381127681
93, 19.51, 29.52, 5.59, 0.00, 0.000, 0.000, 0.000, 16:32:07.682, 1680381127682
94, -452.38, -228.82, -261.50, 0.00, 0.000, 0.000, 0.000, 16:32:07.682, 1680381127682
95, 181.27, 228.78, 160.40, 0.00, 0.000, 0.000, 0.000, 16:32:07.683, 1680381127683
96, 345.95, 250.52, 227.77, 0.00, 0.000, 0.000, 0.000, 16:32:07.683, 1680381127683
97, -438.10, -242.22, -233.21, 0.00, 0.000, 0.000, 0.000, 16:32:07.711, 1680381127711
98, -138.19, 8.32, 3.39, 0.00, 0.000, 0.000, 0.000, 16:32:07.711, 1680381127711
99, 543.03, 419.33, 436.48, 0.00, 0.000, 0.000, 0.000, 16:32:07.712, 1680381127712
100, -287.44, -163.82, -131.80, 0.00, 0.000, 0.000, 0.000, 16:32:07.712, 1680381127712
101, -376.58, -162.86, -167.07, 0.00, 0.000, 0.000, 0.000, 16:32:07.713, 1680381127713
102, 467.14, 392.75, 347.07, 0.00, 0.000, 0.000, 0.000, 16:32:07.713, 1680381127713
103, 8.48, 24.20, -30.93, 0.00, 0.000, 0.000, 0.000, 16:32:07.741, 1680381127741
104, -475.04, -246.11, -305.84, 0.00, 0.000, 0.000, 0.000, 16:32:07.741, 1680381127741
105, 183.79, 220.34, 134.71, 0.00, 0.000, 0.000, 0.000, 16:32:07.742, 1680381127742
106, 356.95, 252.11, 203.21, 0.00, 0.000, 0.000, 0.000, 16:32:07.742, 1680381127742
107, -434.19, -245.79, -263.16, 0.00, 0.000, 0.000, 0.000, 16:32:07.743, 1680381127743
108, -132.59, 8.90, -34.47, 0.00, 0.000, 0.000, 0.000, 16:32:07.743, 1680381127743
109, 548.99, 412.94, 386.48, 0.00, 0.000, 0.000, 0.000, 16:32:07.771, 1680381127771
110, -291.13, -168.45, -182.42, 0.00, 0.000, 0.000, 0.000, 16:32:07.771, 1680381127771
111, -374.49, -167.72, -192.82, 0.00, 0.000, 0.000, 0.000, 16:32:07.772, 1680381127772
112, 469.27, 398.12, 342.91, 0.00, 0.000, 0.000, 0.000, 16:32:07.772, 1680381127772
113, 15.98, 24.15, -10.16, 0.00, 0.000, 0.000, 0.000, 16:32:07.773, 1680381127773
114, -474.34, -242.29, -285.26, 0.00, 0.000, 0.000, 0.000, 16:32:07.773, 1680381127773
115, 168.04, 217.09, 133.06, 0.00, 0.000, 0.000, 0.000, 16:32:07.802, 1680381127802
116, 352.83, 257.94, 199.05, 0.00, 0.000, 0.000, 0.000, 16:32:07.802, 1680381127802
117, -428.58, -230.86, -275.63, 0.00, 0.000, 0.000, 0.000, 16:32:07.803, 1680381127803
118, -142.15, 7.48, -72.19, 0.00, 0.000, 0.000, 0.000, 16:32:07.803, 1680381127803
119, 536.56, 400.41, 342.54, 0.00, 0.000, 0.000, 0.000, 16:32:07.803, 1680381127803
120, -290.91, -169.39, -208.82, 0.00, 0.000, 0.000, 0.000, 16:32:07.803, 1680381127803
121, -380.95, -172.86, -219.98, 0.00, 0.000, 0.000, 0.000, 16:32:07.831, 1680381127831
122, 468.30, 390.15, 337.13, 0.00, 0.000, 0.000, 0.000, 16:32:07.831, 1680381127831
123, 23.37, 20.12, -13.03, 0.00, 0.000, 0.000, 0.000, 16:32:07.832, 1680381127832
124, -468.22, -245.66, -281.45, 0.00, 0.000, 0.000, 0.000, 16:32:07.832, 1680381127832
125, 171.06, 215.11, 146.06, 0.00, 0.000, 0.000, 0.000, 16:32:07.833, 1680381127833
126, 355.24, 249.23, 208.01, 0.00, 0.000, 0.000, 0.000, 16:32:07.833, 1680381127833
127, -440.07, -245.33, -269.46, 0.00, 0.000, 0.000, 0.000, 16:32:07.861, 1680381127861
128, -144.61, -6.32, -56.93, 0.00, 0.000, 0.000, 0.000, 16:32:07.861, 1680381127861
129, 550.75, 397.09, 372.98, 0.00, 0.000, 0.000, 0.000, 16:32:07.862, 1680381127862
130, -285.25, -176.89, -193.20, 0.00, 0.000, 0.000, 0.000, 16:32:07.862, 1680381127862
131, -390.65, -182.09, -216.42, 0.00, 0.000, 0.000, 0.000, 16:32:07.863, 1680381127863
132, 458.46, 381.28, 342.29, 0.00, 0.000, 0.000, 0.000, 16:32:07.863, 1680381127863
133, 3.56, 16.79, -2.50, 0.00, 0.000, 0.000, 0.000, 16:32:07.891, 1680381127891
134, -477.20, -244.25, -258.29, 0.00, 0.000, 0.000, 0.000, 16:32:07.891, 1680381127891
135, 172.10, 219.51, 181.71, 0.00, 0.000, 0.000, 0.000, 16:32:07.892, 1680381127892
136, 343.27, 248.45, 233.02, 0.00, 0.000, 0.000, 0.000, 16:32:07.892, 1680381127892
137, -454.21, -246.32, -242.19, 0.00, 0.000, 0.000, 0.000, 16:32:07.893, 1680381127893
138, -165.48, -4.44, -36.80, 0.00, 0.000, 0.000, 0.000, 16:32:07.893, 1680381127893
139, 532.03, 416.21, 393.11, 0.00, 0.000, 0.000, 0.000, 16:32:07.921, 1680381127921
140, -296.83, -167.14, -166.90, 0.00, 0.000, 0.000, 0.000, 16:32:07.921, 1680381127921
141, -396.03, -172.21, -197.32, 0.00, 0.000, 0.000, 0.000, 16:32:07.922, 1680381127922
142, 453.62, 393.39, 358.29, 0.00, 0.000, 0.000, 0.000, 16:32:07.922, 1680381127922
143, 3.09, 18.00, 7.72, 0.00, 0.000, 0.000, 0.000, 16:32:07.923, 1680381127923
144, -471.00, -247.55, -254.75, 0.00, 0.000, 0.000, 0.000, 16:32:07.923, 1680381127923
145, 163.28, 204.80, 173.61, 0.00, 0.000, 0.000, 0.000, 16:32:07.951, 1680381127951
146, 336.20, 245.45, 226.09, 0.00, 0.000, 0.000, 0.000, 16:32:07.951, 1680381127951
147, -441.81, -239.80, -242.17, 0.00, 0.000, 0.000, 0.000, 16:32:07.952, 1680381127952
148, -156.56, -4.06, -35.18, 0.00, 0.000, 0.000, 0.000, 16:32:07.952, 1680381127952
149, 534.66, 409.42, 400.82, 0.00, 0.000, 0.000, 0.000, 16:32:07.959, 1680381127959
150, -285.88, -161.85, -154.83, 0.00, 0.000, 0.000, 0.000, 16:32:07.959, 1680381127959
151, -392.61, -176.74, -190.25, 0.00, 0.000, 0.000, 0.000, 16:32:07.981, 1680381127981
152, 451.74, 388.67, 352.77, 0.00, 0.000, 0.000, 0.000, 16:32:07.981, 1680381127981
153, 7.83, 26.64, -2.13, 0.00, 0.000, 0.000, 0.000, 16:32:07.982, 1680381127982
154, -479.22, -240.74, -268.65, 0.00, 0.000, 0.000, 0.000, 16:32:07.982, 1680381127982
155, 154.64, 212.78, 164.20, 0.00, 0.000, 0.000, 0.000, 16:32:07.983, 1680381127983
156, 342.23, 246.98, 220.88, 0.00, 0.000, 0.000, 0.000, 16:32:07.983, 1680381127983
157, -453.11, -253.41, -257.78, 0.00, 0.000, 0.000, 0.000, 16:32:08.011, 1680381128011
158, -179.52, -14.87, -52.56, 0.00, 0.000, 0.000, 0.000, 16:32:08.011, 1680381128011
159, 519.69, 396.97, 379.64, 0.00, 0.000, 0.000, 0.000, 16:32:08.013, 1680381128013
160, -303.04, -176.39, -164.70, 0.00, 0.000, 0.000, 0.000, 16:32:08.013, 1680381128013
161, -414.64, -185.31, -200.12, 0.00, 0.000, 0.000, 0.000, 16:32:08.014, 1680381128014
162, 442.39, 378.01, 357.38, 0.00, 0.000, 0.000, 0.000, 16:32:08.014, 1680381128014
163, -5.13, 14.42, 12.80, 0.00, 0.000, 0.000, 0.000, 16:32:08.041, 1680381128041
164, -487.79, -250.85, -252.51, 0.00, 0.000, 0.000, 0.000, 16:32:08.041, 1680381128041
165, 140.06, 195.68, 163.62, 0.00, 0.000, 0.000, 0.000, 16:32:08.042, 1680381128042
166, 319.00, 238.87, 219.99, 0.00, 0.000, 0.000, 0.000, 16:32:08.042, 1680381128042
167, -462.22, -246.12, -262.14, 0.00, 0.000, 0.000, 0.000, 16:32:08.043, 1680381128043
168, -174.86, -8.44, -49.39, 0.00, 0.000, 0.000, 0.000, 16:32:08.043, 1680381128043
169, 525.74, 402.20, 390.54, 0.00, 0.000, 0.000, 0.000, 16:32:08.071, 1680381128071
170, -290.20, -163.67, -165.69, 0.00, 0.000, 0.000, 0.000, 16:32:08.071, 1680381128071
171, -390.10, -166.86, -177.51, 0.00, 0.000, 0.000, 0.000, 16:32:08.072, 1680381128072
172, 457.26, 400.04, 379.36, 0.00, 0.000, 0.000, 0.000, 16:32:08.072, 1680381128072
173, 5.78, 33.46, 29.95, 0.00, 0.000, 0.000, 0.000, 16:32:08.073, 1680381128073
174, -474.38, -231.62, -238.85, 0.00, 0.000, 0.000, 0.000, 16:32:08.073, 1680381128073
175, 154.65, 209.45, 178.98, 0.00, 0.000, 0.000, 0.000, 16:32:08.101, 1680381128101
176, 339.90, 247.93, 242.73, 0.00, 0.000, 0.000, 0.000, 16:32:08.101, 1680381128101
177, -445.46, -237.55, -237.07, 0.00, 0.000, 0.000, 0.000, 16:32:08.102, 1680381128102
178, -160.12, -3.53, -29.40, 0.00, 0.000, 0.000, 0.000, 16:32:08.102, 1680381128102
179, 520.24, 409.21, 394.51, 0.00, 0.000, 0.000, 0.000, 16:32:08.103, 1680381128103
180, -285.95, -155.82, -150.50, 0.00, 0.000, 0.000, 0.000, 16:32:08.103, 1680381128103
181, -396.92, -171.21, -183.55, 0.00, 0.000, 0.000, 0.000, 16:32:08.131, 1680381128131
182, 459.59, 394.55, 376.49, 0.00, 0.000, 0.000, 0.000, 16:32:08.131, 1680381128131
183, 26.82, 34.37, 27.89, 0.00, 0.000, 0.000, 0.000, 16:32:08.132, 1680381128132
184, -473.51, -233.13, -241.01, 0.00, 0.000, 0.000, 0.000, 16:32:08.132, 1680381128132
185, 162.21, 216.02, 180.55, 0.00, 0.000, 0.000, 0.000, 16:32:08.133, 1680381128133
186, 348.44, 259.90, 249.88, 0.00, 0.000, 0.000, 0.000, 16:32:08.133, 1680381128133
187, -441.00, -234.94, -232.94, 0.00, 0.000, 0.000, 0.000, 16:32:08.161, 1680381128161
188, -165.30, -6.28, -38.14, 0.00, 0.000, 0.000, 0.000, 16:32:08.161, 1680381128161
189, 546.52, 417.83, 405.56, 0.00, 0.000, 0.000, 0.000, 16:32:08.162, 1680381128162
190, -274.93, -152.73, -153.89, 0.00, 0.000, 0.000, 0.000, 16:32:08.162, 1680381128162
191, -389.72, -163.25, -195.49, 0.00, 0.000, 0.000, 0.000, 16:32:08.163, 1680381128163
192, 452.00, 392.50, 357.57, 0.00, 0.000, 0.000, 0.000, 16:32:08.163, 1680381128163
193, 32.11, 40.69, 22.29, 0.00, 0.000, 0.000, 0.000, 16:32:08.191, 1680381128191
194, -454.41, -239.10, -249.66, 0.00, 0.000, 0.000, 0.000, 16:32:08.191, 1680381128191
195, 166.43, 208.32, 170.13, 0.00, 0.000, 0.000, 0.000, 16:32:08.192, 1680381128192
196, 359.77, 260.23, 237.59, 0.00, 0.000, 0.000, 0.000, 16:32:08.192, 1680381128192
197, -438.39, -241.59, -247.10, 0.00, 0.000, 0.000, 0.000, 16:32:08.193, 1680381128193
198, -164.21, -13.56, -52.14, 0.00, 0.000, 0.000, 0.000, 16:32:08.193, 1680381128193
199, 546.15, 417.26, 389.46, 0.00, 0.000, 0.000, 0.000, 16:32:08.222, 1680381128222
200, -264.72, -152.13, -155.87, 0.00, 0.000, 0.000, 0.000, 16:32:08.222, 1680381128222
0, -385.33, -172.07, -201.63, 0.00, 0.000, 0.000, 0.000, 16:32:08.223, 1680381128223
1, 462.07, 388.39, 350.78, 0.00, 0.000, 0.000, 0.000, 16:32:08.223, 1680381128223
2, 30.61, 38.90, 16.34, 0.00, 0.000, 0.000, 0.000, 16:32:08.223, 1680381128223
3, -458.71, -230.17, -256.56, 0.00, 0.000, 0.000, 0.000, 16:32:08.224, 1680381128224
4, 161.50, 214.34, 162.74, 0.00, 0.000, 0.000, 0.000, 16:32:08.224, 1680381128224
5, 357.93, 264.02, 240.27, 0.00, 0.000, 0.000, 0.000, 16:32:08.251, 1680381128251
6, -441.10, -237.12, -255.68, 0.00, 0.000, 0.000, 0.000, 16:32:08.251, 1680381128251
7, -168.41, -6.08, -53.23, 0.00, 0.000, 0.000, 0.000, 16:32:08.254, 1680381128254
8, 547.44, 421.78, 388.51, 0.00, 0.000, 0.000, 0.000, 16:32:08.254, 1680381128254
9, -262.80, -147.81, -161.50, 0.00, 0.000, 0.000, 0.000, 16:32:08.282, 1680381128282
10, -369.55, -165.94, -193.81, 0.00, 0.000, 0.000, 0.000, 16:32:08.282, 1680381128282
11, 476.89, 396.48, 367.46, 0.00, 0.000, 0.000, 0.000, 16:32:08.282, 1680381128282
12, 39.36, 42.41, 23.70, 0.00, 0.000, 0.000, 0.000, 16:32:08.282, 1680381128282
13, -461.57, -232.57, -251.04, 0.00, 0.000, 0.000, 0.000, 16:32:08.283, 1680381128283
14, 168.16, 213.12, 165.65, 0.00, 0.000, 0.000, 0.000, 16:32:08.283, 1680381128283
15, 370.96, 264.36, 233.94, 0.00, 0.000, 0.000, 0.000, 16:32:08.284, 1680381128284
16, -425.71, -231.10, -244.83, 0.00, 0.000, 0.000, 0.000, 16:32:08.284, 1680381128284
17, -161.15, -8.33, -48.89, 0.00, 0.000, 0.000, 0.000, 16:32:08.311, 1680381128311
18, 548.81, 410.02, 384.89, 0.00, 0.000, 0.000, 0.000, 16:32:08.311, 1680381128311
19, -260.41, -156.81, -161.67, 0.00, 0.000, 0.000, 0.000, 16:32:08.313, 1680381128313
20, -397.24, -172.88, -193.09, 0.00, 0.000, 0.000, 0.000, 16:32:08.313, 1680381128313
21, 449.93, 382.07, 353.96, 0.00, 0.000, 0.000, 0.000, 16:32:08.341, 1680381128341
22, 25.11, 29.04, 20.42, 0.00, 0.000, 0.000, 0.000, 16:32:08.341, 1680381128341
23, -474.05, -248.40, -253.13, 0.00, 0.000, 0.000, 0.000, 16:32:08.342, 1680381128342
24, 158.56, 205.24, 163.00, 0.00, 0.000, 0.000, 0.000, 16:32:08.342, 1680381128342
25, 355.48, 251.36, 232.72, 0.00, 0.000, 0.000, 0.000, 16:32:08.343, 1680381128343
26, -443.80, -246.24, -254.59, 0.00, 0.000, 0.000, 0.000, 16:32:08.343, 1680381128343
27, -169.41, -14.84, -53.67, 0.00, 0.000, 0.000, 0.000, 16:32:08.344, 1680381128344
28, 548.67, 409.02, 394.39, 0.00, 0.000, 0.000, 0.000, 16:32:08.344, 1680381128344
29, -269.09, -154.33, -148.66, 0.00, 0.000, 0.000, 0.000, 16:32:08.372, 1680381128372
30, -383.01, -175.18, -182.44, 0.00, 0.000, 0.000, 0.000, 16:32:08.372, 1680381128372
31, 480.04, 393.39, 376.89, 0.00, 0.000, 0.000, 0.000, 16:32:08.373, 1680381128373
32, 45.49, 44.99, 35.77, 0.00, 0.000, 0.000, 0.000, 16:32:08.373, 1680381128373
33, -474.51, -223.92, -250.15, 0.00, 0.000, 0.000, 0.000, 16:32:08.401, 1680381128401
34, 154.84, 222.43, 166.87, 0.00, 0.000, 0.000, 0.000, 16:32:08.401, 1680381128401
35, 353.13, 292.73, 232.90, 0.00, 0.000, 0.000, 0.000, 16:32:08.402, 1680381128402
36, -456.79, -221.10, -271.59, 0.00, 0.000, 0.000, 0.000, 16:32:08.402, 1680381128402
37, -220.57, -37.19, -85.80, 0.00, 0.000, 0.000, 0.000, 16:32:08.403, 1680381128403
38, 490.79, 353.37, 361.26, 0.00, 0.000, 0.000, 0.000, 16:32:08.403, 1680381128403
39, -304.21, -203.49, -163.10, 0.00, 0.000, 0.000, 0.000, 16:32:08.409, 1680381128409
40, -413.19, -206.35, -185.82, 0.00, 0.000, 0.000, 0.000, 16:32:08.409, 1680381128409
41, 465.78, 385.25, 385.36, 0.00, 0.000, 0.000, 0.000, 16:32:08.431, 1680381128431
42, 44.07, 45.48, 53.58, 0.00, 0.000, 0.000, 0.000, 16:32:08.431, 1680381128431
43, -458.45, -237.46, -233.01, 0.00, 0.000, 0.000, 0.000, 16:32:08.432, 1680381128432
44, 165.99, 209.91, 178.28, 0.00, 0.000, 0.000, 0.000, 16:32:08.432, 1680381128432
45, 364.03, 262.85, 253.50, 0.00, 0.000, 0.000, 0.000, 16:32:08.463, 1680381128463
46, -428.23, -243.00, -229.41, 0.00, 0.000, 0.000, 0.000, 16:32:08.463, 1680381128463
47, -175.01, -20.07, -47.45, 0.00, 0.000, 0.000, 0.000, 16:32:08.463, 1680381128463
48, 530.62, 404.93, 380.32, 0.00, 0.000, 0.000, 0.000, 16:32:08.463, 1680381128463
49, -253.05, -155.89, -159.93, 0.00, 0.000, 0.000, 0.000, 16:32:08.465, 1680381128465
50, -400.21, -179.23, -201.84, 0.00, 0.000, 0.000, 0.000, 16:32:08.465, 1680381128465
51, 444.49, 382.56, 361.62, 0.00, 0.000, 0.000, 0.000, 16:32:08.465, 1680381128465
52, 34.70, 32.43, 37.35, 0.00, 0.000, 0.000, 0.000, 16:32:08.465, 1680381128465
53, -478.43, -254.56, -252.49, 0.00, 0.000, 0.000, 0.000, 16:32:08.491, 1680381128491
54, 116.75, 187.89, 162.62, 0.00, 0.000, 0.000, 0.000, 16:32:08.491, 1680381128491
55, 357.77, 251.71, 231.60, 0.00, 0.000, 0.000, 0.000, 16:32:08.492, 1680381128492
56, -434.90, -239.83, -258.01, 0.00, 0.000, 0.000, 0.000, 16:32:08.492, 1680381128492
57, -196.35, -34.15, -81.79, 0.00, 0.000, 0.000, 0.000, 16:32:08.521, 1680381128521
58, 535.89, 406.61, 380.38, 0.00, 0.000, 0.000, 0.000, 16:32:08.521, 1680381128521
59, -297.11, -166.15, -157.61, 0.00, 0.000, 0.000, 0.000, 16:32:08.522, 1680381128522
60, -415.44, -180.07, -173.23, 0.00, 0.000, 0.000, 0.000, 16:32:08.522, 1680381128522
61, 418.28, 366.25, 378.65, 0.00, 0.000, 0.000, 0.000, 16:32:08.523, 1680381128523
62, 18.56, 33.24, 67.53, 0.00, 0.000, 0.000, 0.000, 16:32:08.523, 1680381128523
63, -479.80, -249.65, -216.24, 0.00, 0.000, 0.000, 0.000, 16:32:08.524, 1680381128524
64, 121.35, 191.16, 158.89, 0.00, 0.000, 0.000, 0.000, 16:32:08.524, 1680381128524
65, 335.64, 254.20, 215.62, 0.00, 0.000, 0.000, 0.000, 16:32:08.551, 1680381128551
66, -467.46, -251.97, -289.58, 0.00, 0.000, 0.000, 0.000, 16:32:08.551, 1680381128551
67, -187.94, -19.80, -96.23, 0.00, 0.000, 0.000, 0.000, 16:32:08.552, 1680381128552
68, 517.37, 407.10, 358.07, 0.00, 0.000, 0.000, 0.000, 16:32:08.552, 1680381128552
69, -263.90, -149.19, -175.47, 0.00, 0.000, 0.000, 0.000, 16:32:08.581, 1680381128581
70, -402.85, -180.14, -217.09, 0.00, 0.000, 0.000, 0.000, 16:32:08.581, 1680381128581
71, 451.31, 390.07, 356.79, 0.00, 0.000, 0.000, 0.000, 16:32:08.582, 1680381128582
72, 40.68, 49.31, 24.40, 0.00, 0.000, 0.000, 0.000, 16:32:08.582, 1680381128582
73, -477.64, -241.81, -250.73, 0.00, 0.000, 0.000, 0.000, 16:32:08.583, 1680381128583
74, 148.18, 199.80, 154.62, 0.00, 0.000, 0.000, 0.000, 16:32:08.583, 1680381128583
75, 377.27, 273.58, 245.96, 0.00, 0.000, 0.000, 0.000, 16:32:08.584, 1680381128584
76, -428.64, -234.19, -242.35, 0.00, 0.000, 0.000, 0.000, 16:32:08.584, 1680381128584
77, -169.79, -9.76, -61.79, 0.00, 0.000, 0.000, 0.000, 16:32:08.611, 1680381128611
78, 558.63, 425.46, 395.35, 0.00, 0.000, 0.000, 0.000, 16:32:08.611, 1680381128611
79, -259.43, -137.49, -174.57, 0.00, 0.000, 0.000, 0.000, 16:32:08.612, 1680381128612
80, -379.16, -158.97, -212.57, 0.00, 0.000, 0.000, 0.000, 16:32:08.612, 1680381128612
81, 458.39, 390.56, 329.27, 0.00, 0.000, 0.000, 0.000, 16:32:08.641, 1680381128641
82, 53.04, 54.25, 2.67, 0.00, 0.000, 0.000, 0.000, 16:32:08.641, 1680381128641
83, -460.39, -234.67, -275.05, 0.00, 0.000, 0.000, 0.000, 16:32:08.642, 1680381128642
84, 161.77, 210.26, 146.43, 0.00, 0.000, 0.000, 0.000, 16:32:08.642, 1680381128642
85, 382.76, 275.15, 234.60, 0.00, 0.000, 0.000, 0.000, 16:32:08.643, 1680381128643
86, -431.13, -231.88, -267.24, 0.00, 0.000, 0.000, 0.000, 16:32:08.643, 1680381128643
87, -162.39, -5.80, -61.28, 0.00, 0.000, 0.000, 0.000, 16:32:08.644, 1680381128644
88, 558.16, 417.60, 380.92, 0.00, 0.000, 0.000, 0.000, 16:32:08.644, 1680381128644
89, -246.93, -140.03, -158.25, 0.00, 0.000, 0.000, 0.000, 16:32:08.671, 1680381128671
90, -385.93, -172.93, -208.23, 0.00, 0.000, 0.000, 0.000, 16:32:08.671, 1680381128671
91, 448.03, 375.97, 332.70, 0.00, 0.000, 0.000, 0.000, 16:32:08.672, 1680381128672
92, 56.52, 40.67, 22.12, 0.00, 0.000, 0.000, 0.000, 16:32:08.672, 1680381128672
93, -467.18, -244.77, -280.98, 0.00, 0.000, 0.000, 0.000, 16:32:08.701, 1680381128701
94, 153.58, 206.32, 137.33, 0.00, 0.000, 0.000, 0.000, 16:32:08.701, 1680381128701
95, 367.55, 260.55, 229.58, 0.00, 0.000, 0.000, 0.000, 16:32:08.702, 1680381128702
96, -419.42, -234.97, -248.73, 0.00, 0.000, 0.000, 0.000, 16:32:08.702, 1680381128702
97, -169.94, -18.72, -56.65, 0.00, 0.000, 0.000, 0.000, 16:32:08.703, 1680381128703
98, 553.42, 416.01, 394.00, 0.00, 0.000, 0.000, 0.000, 16:32:08.703, 1680381128703
99, -259.49, -146.60, -149.00, 0.00, 0.000, 0.000, 0.000, 16:32:08.704, 1680381128704
100, -396.37, -179.53, -200.94, 0.00, 0.000, 0.000, 0.000, 16:32:08.704, 1680381128704
101, 456.81, 380.61, 350.74, 0.00, 0.000, 0.000, 0.000, 16:32:08.731, 1680381128731
102, 58.44, 50.40, 30.08, 0.00, 0.000, 0.000, 0.000, 16:32:08.731, 1680381128731
103, -458.01, -235.96, -265.27, 0.00, 0.000, 0.000, 0.000, 16:32:08.732, 1680381128732
104, 153.11, 201.02, 141.75, 0.00, 0.000, 0.000, 0.000, 16:32:08.732, 1680381128732
105, 372.34, 271.29, 223.47, 0.00, 0.000, 0.000, 0.000, 16:32:08.761, 1680381128761
106, -414.39, -226.57, -251.69, 0.00, 0.000, 0.000, 0.000, 16:32:08.761, 1680381128761
107, -166.59, -18.13, -71.39, 0.00, 0.000, 0.000, 0.000, 16:32:08.762, 1680381128762
108, 560.61, 420.41, 383.44, 0.00, 0.000, 0.000, 0.000, 16:32:08.762, 1680381128762
109, -244.61, -145.97, -159.76, 0.00, 0.000, 0.000, 0.000, 16:32:08.763, 1680381128763
110, -394.62, -174.86, -207.70, 0.00, 0.000, 0.000, 0.000, 16:32:08.763, 1680381128763
111, 449.81, 383.61, 374.11, 0.00, 0.000, 0.000, 0.000, 16:32:08.764, 1680381128764
112, 53.91, 46.97, 49.80, 0.00, 0.000, 0.000, 0.000, 16:32:08.764, 1680381128764
113, -469.85, -239.22, -235.99, 0.00, 0.000, 0.000, 0.000, 16:32:08.791, 1680381128791
114, 137.90, 192.42, 143.04, 0.00, 0.000, 0.000, 0.000, 16:32:08.791, 1680381128791
115, 371.19, 272.34, 232.02, 0.00, 0.000, 0.000, 0.000, 16:32:08.792, 1680381128792
116, -422.91, -229.25, -248.57, 0.00, 0.000, 0.000, 0.000, 16:32:08.792, 1680381128792
117, -184.43, -19.83, -76.23, 0.00, 0.000, 0.000, 0.000, 16:32:08.821, 1680381128821
118, 545.24, 413.78, 384.61, 0.00, 0.000, 0.000, 0.000, 16:32:08.821, 1680381128821
119, -261.26, -143.91, -161.76, 0.00, 0.000, 0.000, 0.000, 16:32:08.822, 1680381128822
120, -414.19, -186.16, -219.38, 0.00, 0.000, 0.000, 0.000, 16:32:08.822, 1680381128822
121, 437.76, 363.05, 324.16, 0.00, 0.000, 0.000, 0.000, 16:32:08.823, 1680381128823
122, 30.74, 28.34, 19.66, 0.00, 0.000, 0.000, 0.000, 16:32:08.823, 1680381128823
123, -485.57, -251.82, -255.75, 0.00, 0.000, 0.000, 0.000, 16:32:08.824, 1680381128824
124, 129.44, 190.57, 160.05, 0.00, 0.000, 0.000, 0.000, 16:32:08.824, 1680381128824
125, 364.22, 270.73, 266.99, 0.00, 0.000, 0.000, 0.000, 16:32:08.851, 1680381128851
126, -427.58, -233.70, -221.39, 0.00, 0.000, 0.000, 0.000, 16:32:08.851, 1680381128851
127, -180.86, -27.90, -49.97, 0.00, 0.000, 0.000, 0.000, 16:32:08.858, 1680381128858
128, 548.58, 415.18, 404.55, 0.00, 0.000, 0.000, 0.000, 16:32:08.858, 1680381128858
129, -267.04, -154.34, -148.81, 0.00, 0.000, 0.000, 0.000, 16:32:08.881, 1680381128881
130, -405.86, -180.40, -207.95, 0.00, 0.000, 0.000, 0.000, 16:32:08.881, 1680381128881
131, 431.58, 378.99, 342.06, 0.00, 0.000, 0.000, 0.000, 16:32:08.882, 1680381128882
132, 28.54, 43.83, 22.70, 0.00, 0.000, 0.000, 0.000, 16:32:08.882, 1680381128882
133, -475.00, -244.75, -258.54, 0.00, 0.000, 0.000, 0.000, 16:32:08.883, 1680381128883
134, 127.52, 188.52, 145.63, 0.00, 0.000, 0.000, 0.000, 16:32:08.883, 1680381128883
135, 373.02, 272.36, 257.21, 0.00, 0.000, 0.000, 0.000, 16:32:08.884, 1680381128884
136, -441.61, -239.26, -242.68, 0.00, 0.000, 0.000, 0.000, 16:32:08.884, 1680381128884
137, -178.32, -21.09, -60.34, 0.00, 0.000, 0.000, 0.000, 16:32:08.912, 1680381128912
138, 558.93, 418.87, 395.88, 0.00, 0.000, 0.000, 0.000, 16:32:08.912, 1680381128912
139, -251.59, -149.50, -154.04, 0.00, 0.000, 0.000, 0.000, 16:32:08.913, 1680381128913
140, -400.63, -179.91, -220.66, 0.00, 0.000, 0.000, 0.000, 16:32:08.913, 1680381128913
141, 432.35, 372.23, 318.69, 0.00, 0.000, 0.000, 0.000, 16:32:08.942, 1680381128942
142, 49.62, 37.40, 2.05, 0.00, 0.000, 0.000, 0.000, 16:32:08.942, 1680381128942
143, -448.17, -233.26, -271.90, 0.00, 0.000, 0.000, 0.000, 16:32:08.943, 1680381128943
144, 137.58, 188.37, 124.42, 0.00, 0.000, 0.000, 0.000, 16:32:08.943, 1680381128943
145, 384.80, 267.43, 222.95, 0.00, 0.000, 0.000, 0.000, 16:32:08.944, 1680381128944
146, -421.55, -237.94, -268.39, 0.00, 0.000, 0.000, 0.000, 16:32:08.944, 1680381128944
147, -196.98, -28.87, -103.65, 0.00, 0.000, 0.000, 0.000, 16:32:08.945, 1680381128945
148, 534.52, 418.60, 353.39, 0.00, 0.000, 0.000, 0.000, 16:32:08.945, 1680381128945
149, -252.62, -144.04, -185.76, 0.00, 0.000, 0.000, 0.000, 16:32:08.971, 1680381128971
150, -397.57, -178.55, -242.01, 0.00, 0.000, 0.000, 0.000, 16:32:08.971, 1680381128971
151, 433.35, 366.22, 303.67, 0.00, 0.000, 0.000, 0.000, 16:32:08.972, 1680381128972
152, 55.23, 47.49, 10.32, 0.00, 0.000, 0.000, 0.000, 16:32:08.972, 1680381128972
153, -476.76, -259.17, -286.22, 0.00, 0.000, 0.000, 0.000, 16:32:09.002, 1680381129002
154, 127.18, 172.84, 110.12, 0.00, 0.000, 0.000, 0.000, 16:32:09.002, 1680381129002
155, 371.21, 267.46, 226.54, 0.00, 0.000, 0.000, 0.000, 16:32:09.002, 1680381129002
156, -422.90, -244.68, -253.49, 0.00, 0.000, 0.000, 0.000, 16:32:09.002, 1680381129002
157, -186.44, -35.83, -72.47, 0.00, 0.000, 0.000, 0.000, 16:32:09.003, 1680381129003
158, 548.55, 413.32, 383.07, 0.00, 0.000, 0.000, 0.000, 16:32:09.003, 1680381129003
159, -245.59, -140.24, -164.77, 0.00, 0.000, 0.000, 0.000, 16:32:09.004, 1680381129004
160, -376.61, -175.82, -214.89, 0.00, 0.000, 0.000, 0.000, 16:32:09.004, 1680381129004
161, 458.82, 382.63, 336.00, 0.00, 0.000, 0.000, 0.000, 16:32:09.031, 1680381129031
162, 84.31, 60.75, 27.91, 0.00, 0.000, 0.000, 0.000, 16:32:09.031, 1680381129031
163, -445.67, -237.49, -259.19, 0.00, 0.000, 0.000, 0.000, 16:32:09.032, 1680381129032
164, 156.11, 195.05, 149.28, 0.00, 0.000, 0.000, 0.000, 16:32:09.032, 1680381129032
165, 391.06, 279.90, 258.24, 0.00, 0.000, 0.000, 0.000, 16:32:09.061, 1680381129061
166, -414.61, -230.30, -229.01, 0.00, 0.000, 0.000, 0.000, 16:32:09.061, 1680381129061
167, -177.39, -14.80, -47.76, 0.00, 0.000, 0.000, 0.000, 16:32:09.062, 1680381129062
168, 552.52, 423.42, 412.11, 0.00, 0.000, 0.000, 0.000, 16:32:09.062, 1680381129062
169, -255.87, -141.85, -139.90, 0.00, 0.000, 0.000, 0.000, 16:32:09.063, 1680381129063
170, -407.33, -174.80, -191.42, 0.00, 0.000, 0.000, 0.000, 16:32:09.063, 1680381129063
171, 419.37, 381.45, 342.13, 0.00, 0.000, 0.000, 0.000, 16:32:09.064, 1680381129064
172, 51.01, 65.74, 38.44, 0.00, 0.000, 0.000, 0.000, 16:32:09.064, 1680381129064
173, -477.12, -245.01, -256.12, 0.00, 0.000, 0.000, 0.000, 16:32:09.092, 1680381129092
174, 118.47, 188.32, 143.55, 0.00, 0.000, 0.000, 0.000, 16:32:09.092, 1680381129092
175, 372.33, 280.96, 251.36, 0.00, 0.000, 0.000, 0.000, 16:32:09.093, 1680381129093
176, -432.41, -227.48, -237.80, 0.00, 0.000, 0.000, 0.000, 16:32:09.093, 1680381129093
177, -198.31, -20.68, -60.65, 0.00, 0.000, 0.000, 0.000, 16:32:09.122, 1680381129122
178, 539.68, 423.80, 400.38, 0.00, 0.000, 0.000, 0.000, 16:32:09.122, 1680381129122
179, -257.45, -139.15, -143.02, 0.00, 0.000, 0.000, 0.000, 16:32:09.123, 1680381129123
180, -403.42, -176.96, -192.64, 0.00, 0.000, 0.000, 0.000, 16:32:09.123, 1680381129123
181, 436.72, 378.00, 355.97, 0.00, 0.000, 0.000, 0.000, 16:32:09.123, 1680381129123
182, 57.12, 56.13, 50.11, 0.00, 0.000, 0.000, 0.000, 16:32:09.123, 1680381129123
183, -471.75, -244.58, -242.76, 0.00, 0.000, 0.000, 0.000, 16:32:09.124, 1680381129124
184, 119.27, 186.92, 150.72, 0.00, 0.000, 0.000, 0.000, 16:32:09.124, 1680381129124
185, 364.19, 270.05, 267.14, 0.00, 0.000, 0.000, 0.000, 16:32:09.151, 1680381129151
186, -432.81, -238.63, -239.76, 0.00, 0.000, 0.000, 0.000, 16:32:09.151, 1680381129151
187, -214.14, -34.90, -70.08, 0.00, 0.000, 0.000, 0.000, 16:32:09.152, 1680381129152
188, 524.28, 411.69, 383.79, 0.00, 0.000, 0.000, 0.000, 16:32:09.152, 1680381129152
189, -268.63, -139.52, -157.79, 0.00, 0.000, 0.000, 0.000, 16:32:09.181, 1680381129181
190, -407.10, -183.82, -207.49, 0.00, 0.000, 0.000, 0.000, 16:32:09.181, 1680381129181
191, 417.41, 365.37, 336.68, 0.00, 0.000, 0.000, 0.000, 16:32:09.182, 1680381129182
192, 54.82, 51.58, 40.23, 0.00, 0.000, 0.000, 0.000, 16:32:09.182, 1680381129182
193, -462.45, -249.13, -249.74, 0.00, 0.000, 0.000, 0.000, 16:32:09.183, 1680381129183
194, 131.64, 179.06, 149.24, 0.00, 0.000, 0.000, 0.000, 16:32:09.183, 1680381129183
195, 388.36, 283.44, 264.52, 0.00, 0.000, 0.000, 0.000, 16:32:09.184, 1680381129184
196, -427.28, -221.81, -244.32, 0.00, 0.000, 0.000, 0.000, 16:32:09.184, 1680381129184
197, -208.41, -16.05, -91.03, 0.00, 0.000, 0.000, 0.000, 16:32:09.211, 1680381129211
198, 528.15, 442.28, 362.62, 0.00, 0.000, 0.000, 0.000, 16:32:09.211, 1680381129211
199, -271.62, -125.04, -185.74, 0.00, 0.000, 0.000, 0.000, 16:32:09.212, 1680381129212
200, -453.64, -210.51, -248.81, 0.00, 0.000, 0.000, 0.000, 16:32:09.212, 1680381129212
0, 361.45, 313.51, 309.33, 0.00, 0.000, 0.000, 0.000, 16:32:09.213, 1680381129213
1, 28.47, 15.18, 30.68, 0.00, 0.000, 0.000, 0.000, 16:32:09.242, 1680381129242
2, -485.98, -272.26, -251.32, 0.00, 0.000, 0.000, 0.000, 16:32:09.242, 1680381129242
3, 130.38, 174.94, 160.28, 0.00, 0.000, 0.000, 0.000, 16:32:09.242, 1680381129242
4, 399.45, 278.83, 276.22, 0.00, 0.000, 0.000, 0.000, 16:32:09.242, 1680381129242
5, -410.48, -230.70, -221.09, 0.00, 0.000, 0.000, 0.000, 16:32:09.243, 1680381129243
6, -195.30, -37.17, -67.40, 0.00, 0.000, 0.000, 0.000, 16:32:09.243, 1680381129243
7, 538.53, 412.11, 397.97, 0.00, 0.000, 0.000, 0.000, 16:32:09.271, 1680381129271
8, -253.43, -139.11, -140.96, 0.00, 0.000, 0.000, 0.000, 16:32:09.271, 1680381129271
9, -417.14, -193.78, -208.67, 0.00, 0.000, 0.000, 0.000, 16:32:09.272, 1680381129272
10, 405.88, 348.87, 311.01, 0.00, 0.000, 0.000, 0.000, 16:32:09.272, 1680381129272
11, 59.21, 50.67, 29.28, 0.00, 0.000, 0.000, 0.000, 16:32:09.273, 1680381129273
12, -480.70, -245.49, -260.65, 0.00, 0.000, 0.000, 0.000, 16:32:09.273, 1680381129273
13, 99.41, 168.61, 133.91, 0.00, 0.000, 0.000, 0.000, 16:32:09.301, 1680381129301
14, 367.20, 271.94, 256.08, 0.00, 0.000, 0.000, 0.000, 16:32:09.301, 1680381129301
15, -438.66, -236.11, -229.65, 0.00, 0.000, 0.000, 0.000, 16:32:09.302, 1680381129302
16, -198.88, -25.35, -66.28, 0.00, 0.000, 0.000, 0.000, 16:32:09.302, 1680381129302
17, 542.80, 422.18, 389.27, 0.00, 0.000, 0.000, 0.000, 16:32:09.303, 1680381129303
18, -240.69, -135.46, -149.04, 0.00, 0.000, 0.000, 0.000, 16:32:09.303, 1680381129303
19, -407.68, -189.30, -209.85, 0.00, 0.000, 0.000, 0.000, 16:32:09.331, 1680381129331
20, 425.06, 377.41, 345.87, 0.00, 0.000, 0.000, 0.000, 16:32:09.331, 1680381129331
21, 70.20, 71.77, 78.57, 0.00, 0.000, 0.000, 0.000, 16:32:09.332, 1680381129332
22, -480.47, -240.95, -209.81, 0.00, 0.000, 0.000, 0.000, 16:32:09.332, 1680381129332
23, 119.88, 187.99, 190.75, 0.00, 0.000, 0.000, 0.000, 16:32:09.333, 1680381129333
24, 386.24, 288.40, 306.17, 0.00, 0.000, 0.000, 0.000, 16:32:09.333, 1680381129333
25, -421.85, -227.40, -210.61, 0.00, 0.000, 0.000, 0.000, 16:32:09.361, 1680381129361
26, -205.95, -25.56, -78.02, 0.00, 0.000, 0.000, 0.000, 16:32:09.361, 1680381129361
27, 535.04, 420.88, 372.71, 0.00, 0.000, 0.000, 0.000, 16:32:09.363, 1680381129363
28, -236.60, -121.92, -166.26, 0.00, 0.000, 0.000, 0.000, 16:32:09.363, 1680381129363
29, -395.58, -175.82, -222.74, 0.00, 0.000, 0.000, 0.000, 16:32:09.363, 1680381129363
30, 433.04, 376.38, 332.24, 0.00, 0.000, 0.000, 0.000, 16:32:09.363, 1680381129363
31, 83.50, 69.93, 54.24, 0.00, 0.000, 0.000, 0.000, 16:32:09.392, 1680381129392
32, -463.95, -240.13, -249.72, 0.00, 0.000, 0.000, 0.000, 16:32:09.392, 1680381129392
33, 115.96, 181.42, 142.45, 0.00, 0.000, 0.000, 0.000, 16:32:09.392, 1680381129392
34, 392.56, 288.80, 269.01, 0.00, 0.000, 0.000, 0.000, 16:32:09.392, 1680381129392
35, -419.46, -227.70, -243.31, 0.00, 0.000, 0.000, 0.000, 16:32:09.393, 1680381129393
36, -198.68, -34.77, -74.14, 0.00, 0.000, 0.000, 0.000, 16:32:09.393, 1680381129393
37, 546.34, 422.88, 393.21, 0.00, 0.000, 0.000, 0.000, 16:32:09.421, 1680381129421
38, -245.66, -135.14, -150.15, 0.00, 0.000, 0.000, 0.000, 16:32:09.421, 1680381129421
39, -406.51, -182.25, -209.59, 0.00, 0.000, 0.000, 0.000, 16:32:09.422, 1680381129422
40, 415.00, 363.14, 321.98, 0.00, 0.000, 0.000, 0.000, 16:32:09.422, 1680381129422
41, 64.15, 62.13, 34.64, 0.00, 0.000, 0.000, 0.000, 16:32:09.423, 1680381129423
42, -470.42, -244.08, -262.11, 0.00, 0.000, 0.000, 0.000, 16:32:09.423, 1680381129423
43, 112.99, 182.02, 125.35, 0.00, 0.000, 0.000, 0.000, 16:32:09.451, 1680381129451
44, 397.41, 289.61, 265.03, 0.00, 0.000, 0.000, 0.000, 16:32:09.451, 1680381129451
45, -411.07, -230.34, -230.12, 0.00, 0.000, 0.000, 0.000, 16:32:09.452, 1680381129452
46, -200.72, -30.57, -65.90, 0.00, 0.000, 0.000, 0.000, 16:32:09.452, 1680381129452
47, 557.45, 430.40, 416.32, 0.00, 0.000, 0.000, 0.000, 16:32:09.453, 1680381129453
48, -234.64, -125.67, -118.84, 0.00, 0.000, 0.000, 0.000, 16:32:09.453, 1680381129453
49, -386.98, -178.65, -190.46, 0.00, 0.000, 0.000, 0.000, 16:32:09.481, 1680381129481
50, 433.13, 367.59, 348.46, 0.00, 0.000, 0.000, 0.000, 16:32:09.481, 1680381129481
51, 84.68, 59.82, 57.90, 0.00, 0.000, 0.000, 0.000, 16:32:09.482, 1680381129482
52, -455.12, -242.35, -251.11, 0.00, 0.000, 0.000, 0.000, 16:32:09.482, 1680381129482
53, 117.21, 175.13, 134.73, 0.00, 0.000, 0.000, 0.000, 16:32:09.483, 1680381129483
54, 390.89, 284.91, 273.96, 0.00, 0.000, 0.000, 0.000, 16:32:09.483, 1680381129483
55, -402.88, -235.96, -221.57, 0.00, 0.000, 0.000, 0.000, 16:32:09.512, 1680381129512
56, -186.98, -34.86, -67.68, 0.00, 0.000, 0.000, 0.000, 16:32:09.512, 1680381129512
57, 549.77, 419.72, 417.91, 0.00, 0.000, 0.000, 0.000, 16:32:09.513, 1680381129513
58, -224.48, -130.57, -120.25, 0.00, 0.000, 0.000, 0.000, 16:32:09.513, 1680381129513
59, -411.15, -190.53, -201.87, 0.00, 0.000, 0.000, 0.000, 16:32:09.513, 1680381129513
60, 436.01, 367.05, 354.34, 0.00, 0.000, 0.000, 0.000, 16:32:09.513, 1680381129513
61, 84.05, 66.14, 71.54, 0.00, 0.000, 0.000, 0.000, 16:32:09.542, 1680381129542
62, -468.13, -251.38, -243.12, 0.00, 0.000, 0.000, 0.000, 16:32:09.542, 1680381129542
63, 106.61, 173.74, 162.81, 0.00, 0.000, 0.000, 0.000, 16:32:09.543, 1680381129543
64, 403.49, 291.87, 284.41, 0.00, 0.000, 0.000, 0.000, 16:32:09.543, 1680381129543
65, -405.00, -231.15, -226.16, 0.00, 0.000, 0.000, 0.000, 16:32:09.544, 1680381129544
66, -214.23, -47.73, -77.97, 0.00, 0.000, 0.000, 0.000, 16:32:09.544, 1680381129544
67, 545.21, 423.12, 399.69, 0.00, 0.000, 0.000, 0.000, 16:32:09.571, 1680381129571
68, -240.75, -135.31, -140.77, 0.00, 0.000, 0.000, 0.000, 16:32:09.571, 1680381129571
69, -401.51, -188.89, -213.19, 0.00, 0.000, 0.000, 0.000, 16:32:09.572, 1680381129572
70, 429.31, 363.05, 335.80, 0.00, 0.000, 0.000, 0.000, 16:32:09.572, 1680381129572
71, 84.19, 65.65, 53.15, 0.00, 0.000, 0.000, 0.000, 16:32:09.573, 1680381129573
72, -480.95, -247.11, -246.13, 0.00, 0.000, 0.000, 0.000, 16:32:09.573, 1680381129573
73, 102.26, 156.20, 125.18, 0.00, 0.000, 0.000, 0.000, 16:32:09.601, 1680381129601
74, 374.04, 277.94, 275.41, 0.00, 0.000, 0.000, 0.000, 16:32:09.601, 1680381129601
75, -413.69, -247.09, -219.00, 0.00, 0.000, 0.000, 0.000, 16:32:09.602, 1680381129602
76, -220.88, -46.25, -58.83, 0.00, 0.000, 0.000, 0.000, 16:32:09.602, 1680381129602
77, 527.54, 408.14, 401.19, 0.00, 0.000, 0.000, 0.000, 16:32:09.603, 1680381129603
78, -262.58, -139.87, -146.16, 0.00, 0.000, 0.000, 0.000, 16:32:09.603, 1680381129603
79, -431.44, -194.79, -222.88, 0.00, 0.000, 0.000, 0.000, 16:32:09.631, 1680381129631
80, 391.56, 354.61, 316.34, 0.00, 0.000, 0.000, 0.000, 16:32:09.631, 1680381129631
81, 54.70, 56.16, 49.54, 0.00, 0.000, 0.000, 0.000, 16:32:09.632, 1680381129632
82, -504.08, -263.03, -273.03, 0.00, 0.000, 0.000, 0.000, 16:32:09.632, 1680381129632
83, 82.30, 156.27, 115.40, 0.00, 0.000, 0.000, 0.000, 16:32:09.639, 1680381129639
84, 368.76, 271.58, 250.53, 0.00, 0.000, 0.000, 0.000, 16:32:09.639, 1680381129639
85, -445.84, -240.64, -251.25, 0.00, 0.000, 0.000, 0.000, 16:32:09.661, 1680381129661
86, -253.36, -63.28, -95.08, 0.00, 0.000, 0.000, 0.000, 16:32:09.661, 1680381129661
87, 515.61, 402.61, 382.11, 0.00, 0.000, 0.000, 0.000, 16:32:09.663, 1680381129663
88, -260.15, -145.11, -138.18, 0.00, 0.000, 0.000, 0.000, 16:32:09.663, 1680381129663
89, -430.79, -197.05, -220.94, 0.00, 0.000, 0.000, 0.000, 16:32:09.663, 1680381129663
90, 408.71, 357.94, 324.35, 0.00, 0.000, 0.000, 0.000, 16:32:09.663, 1680381129663
91, 63.60, 66.98, 37.64, 0.00, 0.000, 0.000, 0.000, 16:32:09.692, 1680381129692
92, -476.80, -246.79, -274.93, 0.00, 0.000, 0.000, 0.000, 16:32:09.692, 1680381129692
93, 90.66, 163.91, 107.65, 0.00, 0.000, 0.000, 0.000, 16:32:09.692, 1680381129692
94, 397.35, 290.01, 260.38, 0.00, 0.000, 0.000, 0.000, 16:32:09.692, 1680381129692
95, -412.74, -219.03, -242.52, 0.00, 0.000, 0.000, 0.000, 16:32:09.693, 1680381129693
96, -202.71, -34.64, -80.47, 0.00, 0.000, 0.000, 0.000, 16:32:09.693, 1680381129693
97, 549.87, 424.26, 393.25, 0.00, 0.000, 0.000, 0.000, 16:32:09.723, 1680381129723
98, -227.25, -122.63, -141.14, 0.00, 0.000, 0.000, 0.000, 16:32:09.723, 1680381129723
99, -392.61, -169.15, -206.36, 0.00, 0.000, 0.000, 0.000, 16:32:09.723, 1680381129723
100, 426.97, 376.33, 324.21, 0.00, 0.000, 0.000, 0.000, 16:32:09.723, 1680381129723
101, 108.17, 88.41, 61.07, 0.00, 0.000, 0.000, 0.000, 16:32:09.723, 1680381129723
102, -444.77, -240.10, -261.66, 0.00, 0.000, 0.000, 0.000, 16:32:09.724, 1680381129724
103, 111.67, 173.34, 111.77, 0.00, 0.000, 0.000, 0.000, 16:32:09.753, 1680381129753
104, 414.74, 294.12, 256.83, 0.00, 0.000, 0.000, 0.000, 16:32:09.753, 1680381129753
105, -417.53, -231.04, -257.58, 0.00, 0.000, 0.000, 0.000, 16:32:09.753, 1680381129753
106, -203.93, -35.96, -90.57, 0.00, 0.000, 0.000, 0.000, 16:32:09.753, 1680381129753
107, 551.15, 418.84, 375.98, 0.00, 0.000, 0.000, 0.000, 16:32:09.753, 1680381129753
108, -221.26, -124.97, -144.03, 0.00, 0.000, 0.000, 0.000, 16:32:09.753, 1680381129753
109, -409.92, -186.14, -216.15, 0.00, 0.000, 0.000, 0.000, 16:32:09.782, 1680381129782
110, 408.98, 361.38, 314.32, 0.00, 0.000, 0.000, 0.000, 16:32:09.782, 1680381129782
111, 96.66, 79.64, 54.09, 0.00, 0.000, 0.000, 0.000, 16:32:09.782, 1680381129782
112, -474.46, -247.71, -261.88, 0.00, 0.000, 0.000, 0.000, 16:32:09.782, 1680381129782
113, 103.29, 172.23, 123.51, 0.00, 0.000, 0.000, 0.000, 16:32:09.783, 1680381129783
114, 404.63, 291.53, 269.06, 0.00, 0.000, 0.000, 0.000, 16:32:09.783, 1680381129783
115, -421.09, -233.87, -252.72, 0.00, 0.000, 0.000, 0.000, 16:32:09.811, 1680381129811
116, -209.44, -47.80, -92.78, 0.00, 0.000, 0.000, 0.000, 16:32:09.811, 1680381129811
117, 549.97, 421.05, 382.23, 0.00, 0.000, 0.000, 0.000, 16:32:09.813, 1680381129813
118, -220.34, -118.70, -140.54, 0.00, 0.000, 0.000, 0.000, 16:32:09.813, 1680381129813
119, -422.67, -191.32, -223.14, 0.00, 0.000, 0.000, 0.000, 16:32:09.813, 1680381129813
120, 411.22, 354.83, 311.67, 0.00, 0.000, 0.000, 0.000, 16:32:09.813, 1680381129813
121, 89.23, 71.75, 55.77, 0.00, 0.000, 0.000, 0.000, 16:32:09.841, 1680381129841
122, -481.51, -253.88, -264.14, 0.00, 0.000, 0.000, 0.000, 16:32:09.841, 1680381129841
123, 103.24, 162.36, 126.92, 0.00, 0.000, 0.000, 0.000, 16:32:09.842, 1680381129842
124, 406.99, 291.20, 284.72, 0.00, 0.000, 0.000, 0.000, 16:32:09.842, 1680381129842
125, -409.87, -226.73, -238.49, 0.00, 0.000, 0.000, 0.000, 16:32:09.843, 1680381129843
126, -211.63, -40.32, -89.18, 0.00, 0.000, 0.000, 0.000, 16:32:09.843, 1680381129843
127, 547.74, 426.59, 388.70, 0.00, 0.000, 0.000, 0.000, 16:32:09.871, 1680381129871
128, -218.44, -113.32, -137.59, 0.00, 0.000, 0.000, 0.000, 16:32:09.871, 1680381129871
129, -407.68, -179.67, -215.64, 0.00, 0.000, 0.000, 0.000, 16:32:09.872, 1680381129872
130, 405.70, 355.05, 309.23, 0.00, 0.000, 0.000, 0.000, 16:32:09.872, 1680381129872
131, 101.70, 79.74, 55.12, 0.00, 0.000, 0.000, 0.000, 16:32:09.873, 1680381129873
132, -468.92, -247.59, -258.23, 0.00, 0.000, 0.000, 0.000, 16:32:09.873, 1680381129873
133, 99.39, 173.73, 116.66, 0.00, 0.000, 0.000, 0.000, 16:32:09.901, 1680381129901
134, 412.68, 295.58, 270.94, 0.00, 0.000, 0.000, 0.000, 16:32:09.901, 1680381129901
135, -411.56, -222.45, -240.20, 0.00, 0.000, 0.000, 0.000, 16:32:09.902, 1680381129902
136, -208.83, -41.72, -89.09, 0.00, 0.000, 0.000, 0.000, 16:32:09.902, 1680381129902
137, 544.09, 425.71, 379.87, 0.00, 0.000, 0.000, 0.000, 16:32:09.903, 1680381129903
138, -206.90, -117.98, -141.69, 0.00, 0.000, 0.000, 0.000, 16:32:09.903, 1680381129903
139, -398.27, -184.40, -228.55, 0.00, 0.000, 0.000, 0.000, 16:32:09.931, 1680381129931
140, 416.40, 368.40, 301.07, 0.00, 0.000, 0.000, 0.000, 16:32:09.931, 1680381129931
141, 114.87, 93.92, 55.06, 0.00, 0.000, 0.000, 0.000, 16:32:09.932, 1680381129932
142, -445.70, -239.20, -265.14, 0.00, 0.000, 0.000, 0.000, 16:32:09.932, 1680381129932
143, 113.00, 170.60, 112.58, 0.00, 0.000, 0.000, 0.000, 16:32:09.933, 1680381129933
144, 420.78, 307.40, 266.37, 0.00, 0.000, 0.000, 0.000, 16:32:09.933, 1680381129933
145, -407.84, -231.84, -243.87, 0.00, 0.000, 0.000, 0.000, 16:32:09.961, 1680381129961
146, -205.06, -44.34, -81.35, 0.00, 0.000, 0.000, 0.000, 16:32:09.961, 1680381129961
147, 559.13, 426.12, 395.03, 0.00, 0.000, 0.000, 0.000, 16:32:09.963, 1680381129963
148, -212.77, -119.99, -138.97, 0.00, 0.000, 0.000, 0.000, 16:32:09.963, 1680381129963
149, -398.61, -188.88, -220.17, 0.00, 0.000, 0.000, 0.000, 16:32:09.963, 1680381129963
150, 412.27, 354.52, 309.06, 0.00, 0.000, 0.000, 0.000, 16:32:09.963, 1680381129963
151, 108.57, 80.70, 49.04, 0.00, 0.000, 0.000, 0.000, 16:32:09.991, 1680381129991
152, -470.54, -253.04, -278.01, 0.00, 0.000, 0.000, 0.000, 16:32:09.991, 1680381129991
153, 92.93, 155.56, 99.37, 0.00, 0.000, 0.000, 0.000, 16:32:09.992, 1680381129992
154, 421.73, 293.69, 270.41, 0.00, 0.000, 0.000, 0.000, 16:32:09.992, 1680381129992
155, -401.76, -233.69, -247.87, 0.00, 0.000, 0.000, 0.000, 16:32:09.993, 1680381129993
156, -198.28, -39.00, -90.50, 0.00, 0.000, 0.000, 0.000, 16:32:09.993, 1680381129993
157, 569.43, 435.65, 387.98, 0.00, 0.000, 0.000, 0.000, 16:32:10.022, 1680381130022
158, -208.19, -99.43, -156.22, 0.00, 0.000, 0.000, 0.000, 16:32:10.022, 1680381130022
159, -420.50, -170.04, -250.39, 0.00, 0.000, 0.000, 0.000, 16:32:10.023, 1680381130023
160, 378.08, 370.26, 266.31, 0.00, 0.000, 0.000, 0.000, 16:32:10.023, 1680381130023
161, 64.25, 72.15, 12.34, 0.00, 0.000, 0.000, 0.000, 16:32:10.029, 1680381130029
162, -516.15, -289.75, -305.30, 0.00, 0.000, 0.000, 0.000, 16:32:10.029, 1680381130029
163, 59.68, 121.68, 87.49, 0.00, 0.000, 0.000, 0.000, 16:32:10.051, 1680381130051
164, 412.27, 274.25, 271.05, 0.00, 0.000, 0.000, 0.000, 16:32:10.051, 1680381130051
165, -384.13, -233.79, -232.25, 0.00, 0.000, 0.000, 0.000, 16:32:10.052, 1680381130052
166, -198.87, -50.25, -90.36, 0.00, 0.000, 0.000, 0.000, 16:32:10.052, 1680381130052
167, 578.79, 427.72, 397.46, 0.00, 0.000, 0.000, 0.000, 16:32:10.053, 1680381130053
168, -196.28, -124.03, -139.18, 0.00, 0.000, 0.000, 0.000, 16:32:10.053, 1680381130053
169, -385.71, -186.88, -218.67, 0.00, 0.000, 0.000, 0.000, 16:32:10.081, 1680381130081
170, 408.33, 349.42, 299.93, 0.00, 0.000, 0.000, 0.000, 16:32:10.081, 1680381130081
171, 108.29, 79.79, 52.93, 0.00, 0.000, 0.000, 0.000, 16:32:10.082, 1680381130082
172, -465.04, -250.56, -269.68, 0.00, 0.000, 0.000, 0.000, 16:32:10.082, 1680381130082
173, 90.55, 153.50, 101.70, 0.00, 0.000, 0.000, 0.000, 16:32:10.083, 1680381130083
174, 418.61, 297.44, 273.86, 0.00, 0.000, 0.000, 0.000, 16:32:10.083, 1680381130083
175, -411.80, -233.52, -245.12, 0.00, 0.000, 0.000, 0.000, 16:32:10.112, 1680381130112
176, -224.55, -58.23, -106.13, 0.00, 0.000, 0.000, 0.000, 16:32:10.112, 1680381130112
177, 547.51, 415.30, 385.65, 0.00, 0.000, 0.000, 0.000, 16:32:10.112, 1680381130112
178, -209.68, -123.40, -143.57, 0.00, 0.000, 0.000, 0.000, 16:32:10.112, 1680381130112
179, -417.89, -198.01, -246.86, 0.00, 0.000, 0.000, 0.000, 16:32:10.113, 1680381130113
180, 403.53, 352.73, 282.87, 0.00, 0.000, 0.000, 0.000, 16:32:10.113, 1680381130113
181, 97.68, 80.19, 38.99, 0.00, 0.000, 0.000, 0.000, 16:32:10.141, 1680381130141
182, -477.34, -255.13, -266.69, 0.00, 0.000, 0.000, 0.000, 16:32:10.141, 1680381130141
183, 78.62, 155.45, 131.49, 0.00, 0.000, 0.000, 0.000, 16:32:10.142, 1680381130142
184, 408.57, 304.26, 319.89, 0.00, 0.000, 0.000, 0.000, 16:32:10.142, 1680381130142
185, -419.35, -233.00, -181.31, 0.00, 0.000, 0.000, 0.000, 16:32:10.143, 1680381130143
186, -243.73, -57.23, -40.31, 0.00, 0.000, 0.000, 0.000, 16:32:10.143, 1680381130143
187, 527.56, 419.72, 431.88, 0.00, 0.000, 0.000, 0.000, 16:32:10.171, 1680381130171
188, -232.35, -126.62, -124.98, 0.00, 0.000, 0.000, 0.000, 16:32:10.171, 1680381130171
189, -433.07, -200.83, -243.57, 0.00, 0.000, 0.000, 0.000, 16:32:10.172, 1680381130172
190, 376.22, 344.54, 282.09, 0.00, 0.000, 0.000, 0.000, 16:32:10.172, 1680381130172
191, 90.78, 73.09, 32.82, 0.00, 0.000, 0.000, 0.000, 16:32:10.173, 1680381130173
192, -480.63, -250.12, -279.06, 0.00, 0.000, 0.000, 0.000, 16:32:10.173, 1680381130173
193, 60.57, 148.08, 95.15, 0.00, 0.000, 0.000, 0.000, 16:32:10.201, 1680381130201
194, 412.35, 304.15, 287.51, 0.00, 0.000, 0.000, 0.000, 16:32:10.201, 1680381130201
195, -415.60, -230.06, -215.26, 0.00, 0.000, 0.000, 0.000, 16:32:10.202, 1680381130202
196, -241.36, -63.11, -75.21, 0.00, 0.000, 0.000, 0.000, 16:32:10.202, 1680381130202
197, 519.89, 407.59, 406.12, 0.00, 0.000, 0.000, 0.000, 16:32:10.203, 1680381130203
198, -236.16, -136.74, -127.47, 0.00, 0.000, 0.000, 0.000, 16:32:10.203, 1680381130203
199, -432.84, -196.32, -208.84, 0.00, 0.000, 0.000, 0.000, 16:32:10.231, 1680381130231
200, 373.82, 345.09, 323.13, 0.00, 0.000, 0.000, 0.000, 16:32:10.231, 1680381130231
0, 81.37, 76.31, 68.28, 0.00, 0.000, 0.000, 0.000, 16:32:10.233, 1680381130233
1, -509.30, -258.05, -271.37, 0.00, 0.000, 0.000, 0.000, 16:32:10.233, 1680381130233
2, 41.50, 143.16, 89.05, 0.00, 0.000, 0.000, 0.000, 16:32:10.233, 1680381130233
3, 385.95, 291.41, 266.28, 0.00, 0.000, 0.000, 0.000, 16:32:10.234, 1680381130234
4, -444.05, -242.05, -259.63, 0.00, 0.000, 0.000, 0.000, 16:32:10.234, 1680381130234
5, -260.78, -65.61, -118.65, 0.00, 0.000, 0.000, 0.000, 16:32:10.261, 1680381130261
6, 515.84, 418.38, 374.49, 0.00, 0.000, 0.000, 0.000, 16:32:10.261, 1680381130261
7, -237.12, -120.71, -138.56, 0.00, 0.000, 0.000, 0.000, 16:32:10.262, 1680381130262
8, -444.57, -199.23, -230.08, 0.00, 0.000, 0.000, 0.000, 16:32:10.262, 1680381130262
9, 366.09, 334.23, 308.02, 0.00, 0.000, 0.000, 0.000, 16:32:10.291, 1680381130291
10, 83.09, 71.16, 54.98, 0.00, 0.000, 0.000, 0.000, 16:32:10.291, 1680381130291
11, -498.28, -259.97, -272.54, 0.00, 0.000, 0.000, 0.000, 16:32:10.292, 1680381130292
12, 29.97, 123.94, 83.65, 0.00, 0.000, 0.000, 0.000, 16:32:10.292, 1680381130292
13, 392.74, 291.37, 267.16, 0.00, 0.000, 0.000, 0.000, 16:32:10.293, 1680381130293
14, -437.42, -248.23, -255.71, 0.00, 0.000, 0.000, 0.000, 16:32:10.293, 1680381130293
15, -259.08, -72.56, -111.15, 0.00, 0.000, 0.000, 0.000, 16:32:10.294, 1680381130294
16, 520.59, 408.94, 382.92, 0.00, 0.000, 0.000, 0.000, 16:32:10.294, 1680381130294
17, -224.40, -123.98, -130.52, 0.00, 0.000, 0.000, 0.000, 16:32:10.321, 1680381130321
18, -426.67, -197.29, -217.55, 0.00, 0.000, 0.000, 0.000, 16:32:10.321, 1680381130321
19, 381.60, 346.58, 318.86, 0.00, 0.000, 0.000, 0.000, 16:32:10.322, 1680381130322
20, 98.47, 82.99, 77.76, 0.00, 0.000, 0.000, 0.000, 16:32:10.322, 1680381130322
21, -490.18, -256.21, -259.04, 0.00, 0.000, 0.000, 0.000, 16:32:10.351, 1680381130351
22, 62.69, 149.79, 111.69, 0.00, 0.000, 0.000, 0.000, 16:32:10.351, 1680381130351
23, 418.32, 306.15, 295.70, 0.00, 0.000, 0.000, 0.000, 16:32:10.352, 1680381130352
24, -413.37, -231.96, -232.09, 0.00, 0.000, 0.000, 0.000, 16:32:10.352, 1680381130352
25, -241.45, -63.50, -95.22, 0.00, 0.000, 0.000, 0.000, 16:32:10.353, 1680381130353
26, 544.22, 424.31, 401.57, 0.00, 0.000, 0.000, 0.000, 16:32:10.353, 1680381130353
27, -205.95, -111.83, -124.44, 0.00, 0.000, 0.000, 0.000, 16:32:10.354, 1680381130354
28, -417.54, -187.55, -223.82, 0.00, 0.000, 0.000, 0.000, 16:32:10.354, 1680381130354
29, 385.78, 347.23, 310.11, 0.00, 0.000, 0.000, 0.000, 16:32:10.381, 1680381130381
30, 120.97, 99.08, 77.16, 0.00, 0.000, 0.000, 0.000, 16:32:10.381, 1680381130381
31, -464.72, -238.90, -251.61, 0.00, 0.000, 0.000, 0.000, 16:32:10.383, 1680381130383
32, 72.56, 158.38, 122.03, 0.00, 0.000, 0.000, 0.000, 16:32:10.383, 1680381130383
33, 426.41, 312.69, 304.58, 0.00, 0.000, 0.000, 0.000, 16:32:10.412, 1680381130412
34, -402.47, -221.05, -203.12, 0.00, 0.000, 0.000, 0.000, 16:32:10.412, 1680381130412
35, -242.70, -58.14, -79.68, 0.00, 0.000, 0.000, 0.000, 16:32:10.414, 1680381130414
36, 538.41, 428.12, 418.45, 0.00, 0.000, 0.000, 0.000, 16:32:10.414, 1680381130414
37, -199.72, -101.79, -98.04, 0.00, 0.000, 0.000, 0.000, 16:32:10.414, 1680381130414
38, -425.01, -187.31, -208.25, 0.00, 0.000, 0.000, 0.000, 16:32:10.414, 1680381130414
39, 388.76, 358.94, 321.04, 0.00, 0.000, 0.000, 0.000, 16:32:10.414, 1680381130414
40, 130.27, 108.75, 87.79, 0.00, 0.000, 0.000, 0.000, 16:32:10.414, 1680381130414
41, -453.37, -225.01, -240.23, 0.00, 0.000, 0.000, 0.000, 16:32:10.442, 1680381130442
42, 64.18, 152.42, 116.88, 0.00, 0.000, 0.000, 0.000, 16:32:10.442, 1680381130442
43, 430.66, 325.11, 304.49, 0.00, 0.000, 0.000, 0.000, 16:32:10.443, 1680381130443
44, -396.81, -215.56, -220.02, 0.00, 0.000, 0.000, 0.000, 16:32:10.443, 1680381130443
45, -228.34, -54.52, -89.27, 0.00, 0.000, 0.000, 0.000, 16:32:10.471, 1680381130471
46, 562.52, 433.16, 409.53, 0.00, 0.000, 0.000, 0.000, 16:32:10.471, 1680381130471
47, -188.08, -103.74, -112.93, 0.00, 0.000, 0.000, 0.000, 16:32:10.473, 1680381130473
48, -411.96, -196.82, -212.93, 0.00, 0.000, 0.000, 0.000, 16:32:10.473, 1680381130473
49, 385.89, 345.04, 313.48, 0.00, 0.000, 0.000, 0.000, 16:32:10.473, 1680381130473
50, 124.85, 92.33, 84.45, 0.00, 0.000, 0.000, 0.000, 16:32:10.473, 1680381130473
51, -466.99, -246.33, -251.85, 0.00, 0.000, 0.000, 0.000, 16:32:10.479, 1680381130479
52, 64.86, 143.55, 106.83, 0.00, 0.000, 0.000, 0.000, 16:32:10.479, 1680381130479
53, 420.26, 315.51, 282.02, 0.00, 0.000, 0.000, 0.000, 16:32:10.501, 1680381130501
54, -414.85, -221.31, -242.35, 0.00, 0.000, 0.000, 0.000, 16:32:10.501, 1680381130501
55, -256.41, -68.92, -111.62, 0.00, 0.000, 0.000, 0.000, 16:32:10.502, 1680381130502
56, 532.61, 418.84, 385.22, 0.00, 0.000, 0.000, 0.000, 16:32:10.502, 1680381130502
57, -204.12, -111.75, -122.62, 0.00, 0.000, 0.000, 0.000, 16:32:10.531, 1680381130531
58, -415.07, -199.66, -216.76, 0.00, 0.000, 0.000, 0.000, 16:32:10.531, 1680381130531
59, 381.49, 346.29, 321.36, 0.00, 0.000, 0.000, 0.000, 16:32:10.533, 1680381130533
60, 125.53, 97.07, 87.63, 0.00, 0.000, 0.000, 0.000, 16:32:10.533, 1680381130533
61, -463.25, -245.30, -250.19, 0.00, 0.000, 0.000, 0.000, 16:32:10.533, 1680381130533
62, 56.52, 141.73, 99.20, 0.00, 0.000, 0.000, 0.000, 16:32:10.533, 1680381130533
63, 429.46, 312.42, 291.34, 0.00, 0.000, 0.000, 0.000, 16:32:10.534, 1680381130534
64, -392.53, -226.65, -230.16, 0.00, 0.000, 0.000, 0.000, 16:32:10.534, 1680381130534
65, -242.89, -61.21, -105.22, 0.00, 0.000, 0.000, 0.000, 16:32:10.561, 1680381130561
66, 541.72, 427.39, 396.55, 0.00, 0.000, 0.000, 0.000, 16:32:10.561, 1680381130561
67, -198.97, -105.78, -125.25, 0.00, 0.000, 0.000, 0.000, 16:32:10.563, 1680381130563
68, -430.07, -199.88, -227.75, 0.00, 0.000, 0.000, 0.000, 16:32:10.563, 1680381130563
69, 371.80, 339.55, 297.75, 0.00, 0.000, 0.000, 0.000, 16:32:10.592, 1680381130592
70, 136.90, 99.98, 81.78, 0.00, 0.000, 0.000, 0.000, 16:32:10.592, 1680381130592
71, -468.89, -237.61, -255.67, 0.00, 0.000, 0.000, 0.000, 16:32:10.592, 1680381130592
72, 57.03, 150.11, 105.20, 0.00, 0.000, 0.000, 0.000, 16:32:10.592, 1680381130592
73, 435.55, 322.59, 299.53, 0.00, 0.000, 0.000, 0.000, 16:32:10.593, 1680381130593
74, -396.73, -220.58, -225.81, 0.00, 0.000, 0.000, 0.000, 16:32:10.593, 1680381130593
75, -242.54, -64.22, -103.51, 0.00, 0.000, 0.000, 0.000, 16:32:10.594, 1680381130594
76, 544.12, 424.61, 407.24, 0.00, 0.000, 0.000, 0.000, 16:32:10.594, 1680381130594
77, -207.42, -108.20, -114.76, 0.00, 0.000, 0.000, 0.000, 16:32:10.622, 1680381130622
78, -410.95, -202.41, -215.96, 0.00, 0.000, 0.000, 0.000, 16:32:10.622, 1680381130622
79, 383.88, 343.25, 308.47, 0.00, 0.000, 0.000, 0.000, 16:32:10.622, 1680381130622
80, 140.47, 105.36, 90.97, 0.00, 0.000, 0.000, 0.000, 16:32:10.622, 1680381130622
81, -461.89, -241.58, -251.99, 0.00, 0.000, 0.000, 0.000, 16:32:10.652, 1680381130652
82, 66.88, 149.26, 108.07, 0.00, 0.000, 0.000, 0.000, 16:32:10.652, 1680381130652
83, 437.19, 325.72, 304.75, 0.00, 0.000, 0.000, 0.000, 16:32:10.652, 1680381130652
84, -412.47, -221.02, -217.06, 0.00, 0.000, 0.000, 0.000, 16:32:10.652, 1680381130652
85, -243.12, -63.17, -83.32, 0.00, 0.000, 0.000, 0.000, 16:32:10.653, 1680381130653
86, 542.53, 428.25, 422.68, 0.00, 0.000, 0.000, 0.000, 16:32:10.653, 1680381130653
87, -186.24, -97.67, -84.04, 0.00, 0.000, 0.000, 0.000, 16:32:10.654, 1680381130654
88, -416.86, -193.30, -195.18, 0.00, 0.000, 0.000, 0.000, 16:32:10.654, 1680381130654
89, 384.95, 356.01, 332.42, 0.00, 0.000, 0.000, 0.000, 16:32:10.681, 1680381130681
90, 137.04, 113.98, 118.19, 0.00, 0.000, 0.000, 0.000, 16:32:10.681, 1680381130681
91, -459.00, -234.74, -230.92, 0.00, 0.000, 0.000, 0.000, 16:32:10.682, 1680381130682
92, 51.81, 141.74, 112.61, 0.00, 0.000, 0.000, 0.000, 16:32:10.682, 1680381130682
93, 438.39, 326.57, 319.14, 0.00, 0.000, 0.000, 0.000, 16:32:10.711, 1680381130711
94, -387.88, -217.47, -208.12, 0.00, 0.000, 0.000, 0.000, 16:32:10.711, 1680381130711
95, -231.06, -58.05, -80.20, 0.00, 0.000, 0.000, 0.000, 16:32:10.712, 1680381130712
96, 546.05, 437.93, 423.26, 0.00, 0.000, 0.000, 0.000, 16:32:10.712, 1680381130712
97, -189.50, -92.31, -83.85, 0.00, 0.000, 0.000, 0.000, 16:32:10.713, 1680381130713
98, -416.37, -193.79, -196.27, 0.00, 0.000, 0.000, 0.000, 16:32:10.713, 1680381130713
99, 382.53, 347.54, 324.83, 0.00, 0.000, 0.000, 0.000, 16:32:10.714, 1680381130714
100, 147.99, 112.43, 115.07, 0.00, 0.000, 0.000, 0.000, 16:32:10.714, 1680381130714
101, -464.70, -240.42, -246.49, 0.00, 0.000, 0.000, 0.000, 16:32:10.741, 1680381130741
102, 72.66, 148.85, 109.11, 0.00, 0.000, 0.000, 0.000, 16:32:10.741, 1680381130741
103, 436.19, 320.77, 306.07, 0.00, 0.000, 0.000, 0.000, 16:32:10.742, 1680381130742
104, -393.90, -219.97, -229.05, 0.00, 0.000, 0.000, 0.000, 16:32:10.742, 1680381130742
105, -239.74, -74.59, -103.74, 0.00, 0.000, 0.000, 0.000, 16:32:10.771, 1680381130771
106, 536.68, 416.46, 399.40, 0.00, 0.000, 0.000, 0.000, 16:32:10.771, 1680381130771
107, -186.00, -102.41, -112.53, 0.00, 0.000, 0.000, 0.000, 16:32:10.772, 1680381130772
108, -429.62, -218.48, -229.62, 0.00, 0.000, 0.000, 0.000, 16:32:10.772, 1680381130772
109, 385.20, 329.86, 314.32, 0.00, 0.000, 0.000, 0.000, 16:32:10.773, 1680381130773
110, 122.23, 91.92, 93.37, 0.00, 0.000, 0.000, 0.000, 16:32:10.773, 1680381130773
111, -495.00, -264.44, -264.64, 0.00, 0.000, 0.000, 0.000, 16:32:10.774, 1680381130774
112, 37.39, 118.33, 78.48, 0.00, 0.000, 0.000, 0.000, 16:32:10.774, 1680381130774
113, 410.58, 308.97, 277.01, 0.00, 0.000, 0.000, 0.000, 16:32:10.801, 1680381130801
114, -416.27, -232.98, -231.87, 0.00, 0.000, 0.000, 0.000, 16:32:10.801, 1680381130801
115, -271.30, -90.41, -123.75, 0.00, 0.000, 0.000, 0.000, 16:32:10.802, 1680381130802
116, 534.94, 413.20, 392.33, 0.00, 0.000, 0.000, 0.000, 16:32:10.802, 1680381130802
117, -211.74, -121.59, -119.55, 0.00, 0.000, 0.000, 0.000, 16:32:10.832, 1680381130832
118, -420.68, -203.98, -221.05, 0.00, 0.000, 0.000, 0.000, 16:32:10.832, 1680381130832
119, 354.42, 342.74, 285.41, 0.00, 0.000, 0.000, 0.000, 16:32:10.832, 1680381130832
120, 142.97, 129.16, 76.70, 0.00, 0.000, 0.000, 0.000, 16:32:10.832, 1680381130832
121, -491.65, -226.22, -292.56, 0.00, 0.000, 0.000, 0.000, 16:32:10.833, 1680381130833
122, 14.39, 152.25, 49.60, 0.00, 0.000, 0.000, 0.000, 16:32:10.833, 1680381130833
123, 402.01, 315.04, 261.41, 0.00, 0.000, 0.000, 0.000, 16:32:10.834, 1680381130834
124, -442.27, -269.83, -269.62, 0.00, 0.000, 0.000, 0.000, 16:32:10.834, 1680381130834
125, -283.83, -117.54, -130.00, 0.00, 0.000, 0.000, 0.000, 16:32:10.861, 1680381130861
126, 517.61, 387.65, 378.32, 0.00, 0.000, 0.000, 0.000, 16:32:10.861, 1680381130861
127, -165.86, -112.81, -102.53, 0.00, 0.000, 0.000, 0.000, 16:32:10.863, 1680381130863
128, -404.29, -199.79, -210.45, 0.00, 0.000, 0.000, 0.000, 16:32:10.863, 1680381130863
129, 398.27, 345.25, 310.39, 0.00, 0.000, 0.000, 0.000, 16:32:10.891, 1680381130891
130, 155.88, 109.27, 92.96, 0.00, 0.000, 0.000, 0.000, 16:32:10.892, 1680381130892
131, -459.28, -239.89, -262.32, 0.00, 0.000, 0.000, 0.000, 16:32:10.892, 1680381130892
132, 52.21, 132.27, 73.37, 0.00, 0.000, 0.000, 0.000, 16:32:10.892, 1680381130892
133, 445.27, 319.59, 289.43, 0.00, 0.000, 0.000, 0.000, 16:32:10.893, 1680381130893
134, -377.35, -211.74, -234.54, 0.00, 0.000, 0.000, 0.000, 16:32:10.893, 1680381130893
135, -250.55, -75.84, -130.16, 0.00, 0.000, 0.000, 0.000, 16:32:10.894, 1680381130894
136, 554.22, 434.27, 383.01, 0.00, 0.000, 0.000, 0.000, 16:32:10.894, 1680381130894
137, -185.55, -102.43, -132.36, 0.00, 0.000, 0.000, 0.000, 16:32:10.921, 1680381130921
138, -433.19, -204.54, -243.58, 0.00, 0.000, 0.000, 0.000, 16:32:10.921, 1680381130921
139, 367.73, 331.74, 297.29, 0.00, 0.000, 0.000, 0.000, 16:32:10.928, 1680381130928
140, 140.45, 101.32, 78.51, 0.00, 0.000, 0.000, 0.000, 16:32:10.928, 1680381130928
141, -459.57, -244.38, -274.19, 0.00, 0.000, 0.000, 0.000, 16:32:10.951, 1680381130951
142, 35.10, 121.46, 55.51, 0.00, 0.000, 0.000, 0.000, 16:32:10.951, 1680381130951
143, 459.66, 337.38, 286.66, 0.00, 0.000, 0.000, 0.000, 16:32:10.952, 1680381130952
144, -386.43, -215.89, -240.98, 0.00, 0.000, 0.000, 0.000, 16:32:10.952, 1680381130952
145, -249.24, -64.26, -99.57, 0.00, 0.000, 0.000, 0.000, 16:32:10.953, 1680381130953
146, 552.73, 439.40, 425.03, 0.00, 0.000, 0.000, 0.000, 16:32:10.953, 1680381130953
147, -172.34, -84.82, -67.39, 0.00, 0.000, 0.000, 0.000, 16:32:10.954, 1680381130954
148, -411.09, -186.04, -185.51, 0.00, 0.000, 0.000, 0.000, 16:32:10.954, 1680381130954
149, 370.09, 344.56, 316.81, 0.00, 0.000, 0.000, 0.000, 16:32:10.981, 1680381130981
150, 160.39, 122.76, 99.19, 0.00, 0.000, 0.000, 0.000, 16:32:10.981, 1680381130981
151, -454.37, -239.90, -284.11, 0.00, 0.000, 0.000, 0.000, 16:32:10.982, 1680381130982
152, 40.42, 131.07, 36.38, 0.00, 0.000, 0.000, 0.000, 16:32:10.982, 1680381130982
153, 467.97, 339.54, 278.16, 0.00, 0.000, 0.000, 0.000, 16:32:11.011, 1680381131011
154, -378.81, -218.18, -244.91, 0.00, 0.000, 0.000, 0.000, 16:32:11.011, 1680381131011
155, -253.86, -69.50, -113.98, 0.00, 0.000, 0.000, 0.000, 16:32:11.012, 1680381131012
156, 555.20, 432.79, 413.71, 0.00, 0.000, 0.000, 0.000, 16:32:11.012, 1680381131012
157, -168.79, -89.84, -89.24, 0.00, 0.000, 0.000, 0.000, 16:32:11.013, 1680381131013
158, -411.07, -194.48, -212.12, 0.00, 0.000, 0.000, 0.000, 16:32:11.013, 1680381131013
159, 370.18, 337.67, 298.95, 0.00, 0.000, 0.000, 0.000, 16:32:11.014, 1680381131014
160, 156.72, 119.79, 95.58, 0.00, 0.000, 0.000, 0.000, 16:32:11.014, 1680381131014
161, -458.09, -239.53, -254.01, 0.00, 0.000, 0.000, 0.000, 16:32:11.043, 1680381131043
162, 32.58, 124.53, 73.09, 0.00, 0.000, 0.000, 0.000, 16:32:11.043, 1680381131043
163, 448.77, 334.17, 299.70, 0.00, 0.000, 0.000, 0.000, 16:32:11.043, 1680381131043
164, -391.26, -218.30, -230.98, 0.00, 0.000, 0.000, 0.000, 16:32:11.043, 1680381131043
165, -262.37, -75.39, -121.08, 0.00, 0.000, 0.000, 0.000, 16:32:11.071, 1680381131071
166, 540.18, 428.35, 386.00, 0.00, 0.000, 0.000, 0.000, 16:32:11.071, 1680381131071
167, -174.50, -88.90, -116.54, 0.00, 0.000, 0.000, 0.000, 16:32:11.072, 1680381131072
168, -426.52, -196.80, -224.58, 0.00, 0.000, 0.000, 0.000, 16:32:11.072, 1680381131072
169, 353.73, 327.16, 291.64, 0.00, 0.000, 0.000, 0.000, 16:32:11.073, 1680381131073
170, 161.80, 117.98, 98.56, 0.00, 0.000, 0.000, 0.000, 16:32:11.073, 1680381131073
171, -457.32, -239.43, -255.69, 0.00, 0.000, 0.000, 0.000, 16:32:11.074, 1680381131074
172, 36.60, 128.39, 58.54, 0.00, 0.000, 0.000, 0.000, 16:32:11.074, 1680381131074
173, 453.69, 330.59, 298.00, 0.00, 0.000, 0.000, 0.000, 16:32:11.101, 1680381131101
174, -378.29, -219.62, -233.18, 0.00, 0.000, 0.000, 0.000, 16:32:11.101, 1680381131101
175, -263.42, -79.32, -131.38, 0.00, 0.000, 0.000, 0.000, 16:32:11.102, 1680381131102
176, 540.56, 423.78, 380.82, 0.00, 0.000, 0.000, 0.000, 16:32:11.102, 1680381131102
177, -173.29, -100.86, -119.20, 0.00, 0.000, 0.000, 0.000, 16:32:11.131, 1680381131131
178, -424.61, -210.29, -234.62, 0.00, 0.000, 0.000, 0.000, 16:32:11.131, 1680381131131
179, 357.61, 318.26, 288.75, 0.00, 0.000, 0.000, 0.000, 16:32:11.132, 1680381131132
180, 146.05, 107.75, 85.81, 0.00, 0.000, 0.000, 0.000, 16:32:11.132, 1680381131132
181, -466.85, -260.02, -265.69, 0.00, 0.000, 0.000, 0.000, 16:32:11.133, 1680381131133
182, 9.20, 104.62, 65.54, 0.00, 0.000, 0.000, 0.000, 16:32:11.133, 1680381131133
183, 435.94, 324.14, 297.53, 0.00, 0.000, 0.000, 0.000, 16:32:11.134, 1680381131134
184, -411.70, -231.33, -248.34, 0.00, 0.000, 0.000, 0.000, 16:32:11.134, 1680381131134
185, -280.70, -82.21, -134.64, 0.00, 0.000, 0.000, 0.000, 16:32:11.161, 1680381131161
186, 541.38, 421.75, 388.07, 0.00, 0.000, 0.000, 0.000, 16:32:11.161, 1680381131161
187, -173.05, -101.43, -120.11, 0.00, 0.000, 0.000, 0.000, 16:32:11.162, 1680381131162
188, -439.94, -212.06, -244.84, 0.00, 0.000, 0.000, 0.000, 16:32:11.162, 1680381131162
189, 350.61, 317.96, 275.50, 0.00, 0.000, 0.000, 0.000, 16:32:11.191, 1680381131191
190, 147.16, 104.08, 73.48, 0.00, 0.000, 0.000, 0.000, 16:32:11.191, 1680381131191
191, -471.07, -251.42, -282.67, 0.00, 0.000, 0.000, 0.000, 16:32:11.192, 1680381131192
192, 20.69, 111.61, 41.38, 0.00, 0.000, 0.000, 0.000, 16:32:11.192, 1680381131192
193, 460.19, 329.69, 282.41, 0.00, 0.000, 0.000, 0.000, 16:32:11.193, 1680381131193
194, -393.20, -229.27, -260.23, 0.00, 0.000, 0.000, 0.000, 16:32:11.193, 1680381131193
195, -262.07, -90.97, -157.14, 0.00, 0.000, 0.000, 0.000, 16:32:11.194, 1680381131194
196, 538.15, 409.39, 355.63, 0.00, 0.000, 0.000, 0.000, 16:32:11.194, 1680381131194
197, -168.57, -105.19, -131.00, 0.00, 0.000, 0.000, 0.000, 16:32:11.221, 1680381131221
198, -436.83, -220.87, -247.01, 0.00, 0.000, 0.000, 0.000, 16:32:11.221, 1680381131221
199, 346.99, 320.54, 280.97, 0.00, 0.000, 0.000, 0.000, 16:32:11.222, 1680381131222
200, 160.63, 123.18, 97.19, 0.00, 0.000, 0.000, 0.000, 16:32:11.222, 1680381131222
0, -456.28, -246.24, -268.61, 0.00, 0.000, 0.000, 0.000, 16:32:11.223, 1680381131223
1, 23.56, 116.08, 53.75, 0.00, 0.000, 0.000, 0.000, 16:32:11.251, 1680381131251
2, 459.91, 335.81, 300.90, 0.00, 0.000, 0.000, 0.000, 16:32:11.251, 1680381131251
3, -380.17, -215.77, -231.54, 0.00, 0.000, 0.000, 0.000, 16:32:11.253, 1680381131253
4, -272.56, -88.53, -137.83, 0.00, 0.000, 0.000, 0.000, 16:32:11.253, 1680381131253
5, 540.65, 426.62, 380.54, 0.00, 0.000, 0.000, 0.000, 16:32:11.254, 1680381131254
6, -163.76, -92.19, -118.87, 0.00, 0.000, 0.000, 0.000, 16:32:11.254, 1680381131254
7, -424.19, -203.79, -235.10, 0.00, 0.000, 0.000, 0.000, 16:32:11.283, 1680381131283
8, 348.40, 324.95, 280.67, 0.00, 0.000, 0.000, 0.000, 16:32:11.283, 1680381131283
9, 165.01, 119.92, 102.65, 0.00, 0.000, 0.000, 0.000, 16:32:11.284, 1680381131284
10, -455.41, -241.70, -254.29, 0.00, 0.000, 0.000, 0.000, 16:32:11.284, 1680381131284
